SampleIdent               : oreas 24b
TimeMeasured              : 16/08/2017 12:37:34
Application               : <Omnian>
ConditionSet              : Omnian
Instrument                : Epsilon1
InstrumentSerial          : 672 (M-672)
TubeAnode                 : Ag 50
Detector                  : SDD5
kV                        : 50.000
mA                        : 0.100
uA                        : 100
Filter                    : Ag 100
Medium                    : Air
PeakingTimeNr             : 3
ZeroReference             : -0.006660745945
GainReference             : 0.008007249795
NoiseReference            : 0.071620985866
FanoReference             : 0.127556249499
ZeroInit                  : -0.006602666806
GainInit                  : 0.008007533848
NoiseInit                 : 0.073252178729
FanoInit                  : 0.128453314304
ZeroFit                   : -0.011647688225
GainFit                   : 0.008025442250
NoiseFit                  : 0.073794580996
FanoFit                   : 0.133350536227
NormFactor                : 1.001468539238
NormRefCounts             : 66115.265625000000
NormCurCounts             : 66018.312500000000
ROI-Fit (chan)            : 250
ROI-Fit (chan)            : 4094
Chi-square                : 1.022429585457
RefPressure               : 974.60
RefTemp                   : 29.300
MeasPressure              : 1005.10
MeasTemp                  : 30.800
Delta_hPa                 : 25.176704406738
HeliumFlow                : 0.00
LiveTime                  : 8.772421900000
TrueTime                  : 12.000493000000
FastChanLiveT             : 10.036595000000
FastChanDeadT             : 1.963898000000
DeadTime                  : 3.228071100000
DeadTimePct               : 26.899
FastChanCounts            : 617819
OutputCounts              : 536386
UnderflowCounts           : 0
OverflowCounts            : -18414
TotalCounts               : 554800
NrOfChannels              : 4096
Energy (keV)	Counts	Background	Fit
-1.164769E-02	0	0	0
-3.622246E-03	0	0	0
4.403196E-03	0	0	0
1.242864E-02	0	0	0
2.045408E-02	0	0	0
2.847952E-02	0	0	0
3.650497E-02	0	0	0
4.453041E-02	0	0	0
5.255585E-02	0	0	0
6.058129E-02	0	0	0
6.860673E-02	0	0	0
7.663218E-02	0	0	0
8.465762E-02	0	0	0
9.268306E-02	0	0	0
0.1007085	0	0	0
0.1087339	0	0	0
0.1167594	0	0	0
0.1247848	0	0	0
0.1328103	0	0	0
0.1408357	0	0	0
0.1488612	1	0	0
0.1568866	0	0	0
0.164912	0	0	0
0.1729375	0	0	0
0.1809629	0	0	0
0.1889884	0	0	0
0.1970138	0	0	0
0.2050392	0	0	0
0.2130647	0	0	0
0.2210901	0	0	0
0.2291156	0	0	0
0.237141	0	0	0
0.2451665	0	0	0
0.2531919	0	0	0
0.2612174	0	0	0
0.2692428	0	0	0
0.2772682	0	0	0
0.2852937	0	0	0
0.2933191	0	0	0
0.3013446	0	0	0
0.30937	0	0	0
0.3173954	0	0	0
0.3254209	0	0	0
0.3334463	0	0	0
0.3414718	0	0	0
0.3494972	0	0	0
0.3575227	0	0	0
0.3655481	0	0	0
0.3735735	0	0	0
0.381599	0	0	0
0.3896244	0	0	0
0.3976499	0	0	0
0.4056753	0	0	0
0.4137008	0	0	0
0.4217262	0	0	0
0.4297516	0	0	0
0.4377771	0	0	0
0.4458025	0	0	0
0.453828	0	0	0
0.4618534	0	0	0
0.4698789	0	0	0
0.4779043	0	0	0
0.4859297	0	0	0
0.4939552	0	0	0
0.5019806	0	0	0
0.5100061	0	0	0
0.5180315	0	0	0
0.5260569	0	0	0
0.5340824	0	0	0
0.5421078	1	0	0
0.5501333	1	0	0
0.5581587	2	0	0
0.5661842	1	0	0
0.5742096	0	0	0
0.582235	1	0	0
0.5902605	3	0	0
0.5982859	2	0	0
0.6063114	1	0	0
0.6143368	3	0	0
0.6223623	5	0	0
0.6303877	6	0	0
0.6384131	10	0	0
0.6464386	3	0	0
0.654464	6	0	0
0.6624895	11	0	0
0.6705149	4	0	0
0.6785403	15	0	0
0.6865658	9	0	0
0.6945912	13	0	0
0.7026167	11	0	0
0.7106421	22	0	0
0.7186676	22	0	0
0.726693	18	0	0
0.7347184	31	0	0
0.7427439	23	0	0
0.7507693	34	0	0
0.7587948	31	0	0
0.7668202	32	0	0
0.7748457	43	0	0
0.7828711	34	0	0
0.7908965	47	0	0
0.798922	43	0	0
0.8069474	30	0	0
0.8149729	40	0	0
0.8229983	59	0	0
0.8310238	44	0	0
0.8390492	52	0	0
0.8470746	44	0	0
0.8551001	42	0	0
0.8631255	50	0	0
0.871151	51	0	0
0.8791764	36	0	0
0.8872018	52	0	0
0.8952273	50	0	0
0.9032527	42	0	0
0.9112782	50	0	0
0.9193036	44	0	0
0.9273291	47	0	0
0.9353545	61	0	0
0.9433799	50	0	0
0.9514054	62	0	0
0.9594308	57	0	0
0.9674563	59	0	0
0.9754817	55	0	0
0.9835072	46	0	0
0.9915326	50	0	0
0.999558	59	0	0
1.007583	54	0	0
1.015609	31	0	0
1.023634	55	0	0
1.03166	46	0	0
1.039685	48	0	0
1.047711	43	0	0
1.055736	58	0	0
1.063762	51	0	0
1.071787	42	0	0
1.079812	54	0	0
1.087838	45	0	0
1.095863	43	0	0
1.103889	49	0	0
1.111914	39	0	0
1.11994	49	0	0
1.127965	48	0	0
1.135991	46	0	0
1.144016	49	0	0
1.152041	53	0	0
1.160067	48	0	0
1.168092	42	0	0
1.176118	51	0	0
1.184143	40	0	0
1.192169	67	0	0
1.200194	46	0	0
1.20822	44	0	0
1.216245	42	0	0
1.22427	48	0	0
1.232296	36	0	0
1.240321	58	0	0
1.248347	54	0	0
1.256372	57	0	0
1.264398	44	0	0
1.272423	41	0	0
1.280449	45	0	0
1.288474	49	0	0
1.296499	48	0	0
1.304525	56	0	0
1.31255	41	0	0
1.320576	43	0	0
1.328601	45	0	0
1.336627	41	0	0
1.344652	43	0	0
1.352677	41	0	0
1.360703	58	0	0
1.368728	43	0	0
1.376754	52	0	0
1.384779	47	0	0
1.392805	54	0	0
1.40083	42	0	0
1.408856	42	0	0
1.416881	50	0	0
1.424906	41	0	0
1.432932	50	0	0
1.440957	38	0	0
1.448983	49	0	0
1.457008	66	0	0
1.465034	55	0	0
1.473059	52	0	0
1.481085	51	0	0
1.48911	61	0	0
1.497135	47	0	0
1.505161	46	0	0
1.513186	49	0	0
1.521212	59	0	0
1.529237	55	0	0
1.537263	58	0	0
1.545288	54	0	0
1.553313	46	0	0
1.561339	44	0	0
1.569364	43	0	0
1.57739	43	0	0
1.585415	43	0	0
1.593441	45	0	0
1.601466	51	0	0
1.609492	38	0	0
1.617517	53	0	0
1.625543	37	0	0
1.633568	47	0	0
1.641593	44	0	0
1.649619	44	0	0
1.657644	43	0	0
1.66567	51	0	0
1.673695	43	0	0
1.681721	47	0	0
1.689746	65	0	0
1.697772	55	0	0
1.705797	67	0	0
1.713822	59	0	0
1.721848	65	0	0
1.729873	58	0	0
1.737899	62	0	0
1.745924	71	0	0
1.75395	61	0	0
1.761975	74	0	0
1.77	61	0	0
1.778026	55	0	0
1.786051	49	0	0
1.794077	36	0	0
1.802102	35	0	0
1.810128	39	0	0
1.818153	44	0	0
1.826179	37	0	0
1.834204	41	0	0
1.842229	36	0	0
1.850255	38	0	0
1.85828	37	0	0
1.866306	51	0	0
1.874331	36	0	0
1.882357	32	0	0
1.890382	36	0	0
1.898408	36	0	0
1.906433	30	0	0
1.914458	25	0	0
1.922484	26	0	0
1.930509	37	0	0
1.938535	33	0	0
1.94656	30	0	0
1.954586	44	0	0
1.962611	47	0	0
1.970637	33	0	0
1.978662	33	0	0
1.986687	27	0	0
1.994713	31	29.68066	32.50879
2.002738	35	29.31152	31.54004
2.010764	28	28.94238	30.72168
2.018789	30	28.5752	30.02148
2.026815	34	28.27832	29.47852
2.03484	26	27.97949	28.99902
2.042866	21	27.66504	28.54883
2.050891	35	27.34277	28.12109
2.058916	30	27.01758	27.70898
2.066942	26	26.69238	27.30762
2.074967	30	26.37012	26.91504
2.082993	22	26.08398	26.56445
2.091018	38	25.78613	26.20703
2.099044	24	25.48145	25.85254
2.107069	23	25.17578	25.50684
2.115094	22	24.87109	25.17383
2.12312	28	24.55273	24.8418
2.131145	22	24.22949	24.51953
2.139171	23	23.90723	24.21289
2.147196	23	23.62402	23.9541
2.155222	27	23.30957	23.6748
2.163247	18	22.99805	23.40137
2.171273	28	22.97363	23.41797
2.179298	24	22.92969	23.41113
2.187324	25	22.8623	23.37695
2.195349	17	22.78418	23.32617
2.203374	25	22.7041	23.27051
2.2114	23	22.62012	23.21191
2.219425	26	22.5293	23.15234
2.227451	28	22.43555	23.10352
2.235476	17	22.33008	23.06836
2.243502	24	22.21875	23.06152
2.251527	34	22.10352	23.0957
2.259552	22	21.98535	23.17871
2.267578	29	21.86621	23.31836
2.275603	28	21.74414	23.5127
2.283629	27	21.62109	23.75586
2.291654	19	21.48633	24.02539
2.29968	19	21.34668	24.30859
2.307705	21	21.20703	24.58496
2.315731	24	21.11328	24.87402
2.323756	21	21.01465	25.0957
2.331781	31	20.89941	25.21582
2.339807	26	20.77734	25.22852
2.347832	36	20.65234	25.12891
2.355858	29	20.51563	24.91211
2.363883	24	20.37305	24.59766
2.371909	16	20.23047	24.21191
2.379934	26	20.13867	23.8291
2.387959	25	20.04395	23.42383
2.395985	29	19.93457	23.00488
2.404011	19	19.81543	22.59473
2.412036	21	19.69141	22.20898
2.420061	25	19.55664	21.84375
2.428087	18	19.41699	21.50293
2.436112	16	19.27734	21.18555
2.444138	20	19.16016	20.90332
2.452163	26	19.04297	20.62988
2.460189	23	18.9248	20.35547
2.468214	19	18.7998	20.07324
2.476239	25	18.67188	19.78809
2.484265	13	18.54297	19.50293
2.49229	17	18.41211	19.22559
2.500316	21	18.27051	18.9502
2.508341	21	18.125	18.68848
2.516367	28	17.97656	18.44727
2.524392	10	17.82715	18.23242
2.532418	15	17.67871	18.0459
2.540443	11	17.58105	17.94043
2.548468	20	17.47949	17.85938
2.556494	16	17.35938	17.78516
2.564519	20	17.23047	17.72461
2.572545	21	17.10254	17.68262
2.58057	27	16.99707	17.67578
2.588596	16	16.88965	17.67188
2.596621	16	16.77051	17.65527
2.604646	17	16.64453	17.62305
2.612672	17	16.51855	17.57617
2.620697	17	16.38477	17.50098
2.628723	13	16.24512	17.39648
2.636748	17	16.10254	17.26465
2.644774	18	15.95801	17.1084
2.652799	21	15.81152	16.93164
2.660825	17	15.64648	16.72461
2.66885	18	15.47363	16.50391
2.676875	21	15.30078	16.28613
2.684901	13	15.3623	16.31055
2.692926	12	15.41504	16.33887
2.700952	18	15.44922	16.36426
2.708977	11	15.47266	16.39551
2.717003	18	15.49707	16.44141
2.725028	13	15.51367	16.49121
2.733053	14	15.52539	16.54004
2.741079	18	15.53711	16.58691
2.749104	16	15.55273	16.63086
2.75713	15	15.56348	16.65918
2.765155	21	15.57129	16.66797
2.773181	18	15.57813	16.65918
2.781206	28	15.57813	16.62891
2.789232	22	15.5752	16.58203
2.797257	17	15.57031	16.52637
2.805283	22	15.55664	16.46289
2.813308	19	15.53809	16.40527
2.821333	16	15.51465	16.36621
2.829359	24	15.48828	16.36426
2.837384	19	15.46191	16.42188
2.84541	20	15.43262	16.55859
2.853435	16	15.39453	16.7959
2.861461	19	15.35254	17.16699
2.869486	12	15.30859	17.70215
2.877512	21	15.2627	18.43066
2.885537	18	15.20605	19.36621
2.893562	20	15.14258	20.5293
2.901588	18	15.0791	21.92383
2.909613	31	15.11426	23.62988
2.917639	24	15.14258	25.50586
2.925664	27	15.15918	27.4834
2.93369	36	15.16992	29.4834
2.941715	39	15.17969	31.41113
2.94974	39	15.18848	33.1582
2.957766	28	15.19629	34.61523
2.965791	29	15.20215	35.68457
2.973817	36	15.20508	36.29395
2.981842	36	15.20605	36.39941
2.989868	36	15.20605	35.99805
2.997893	24	15.20508	35.12598
3.005919	36	15.20215	33.85156
3.013944	34	15.19727	32.27246
3.02197	43	15.18945	30.50684
3.029995	33	15.17285	28.67188
3.03802	34	15.15137	26.89063
3.046046	28	15.12793	25.26953
3.054071	20	15.10254	23.89355
3.062097	25	15.07715	22.82031
3.070122	26	15.0459	22.07227
3.078148	18	15.01074	21.65332
3.086173	23	14.97266	21.54297
3.094198	30	14.93164	21.69434
3.102224	25	14.88672	22.05371
3.110249	31	14.83691	22.55176
3.118275	22	14.78418	23.12598
3.1263	28	14.73047	23.72168
3.134326	23	14.74414	24.36133
3.142351	23	14.75293	24.95605
3.150377	22	14.75879	25.51953
3.158402	16	14.75977	26.09961
3.166427	24	14.75391	26.78613
3.174453	24	14.74414	27.71777
3.182478	31	14.73047	29.07031
3.190504	30	14.71484	31.05371
3.198529	42	14.69922	33.90039
3.206555	41	14.7002	37.85449
3.21458	40	14.69824	43.10352
3.222605	50	14.69531	49.80176
3.230631	50	14.68848	58.01465
3.238657	68	14.67871	67.69824
3.246682	67	14.66699	78.67188
3.254707	91	14.64844	90.60156
3.262733	118	14.62793	103.0176
3.270758	112	14.60449	115.3242
3.278784	127	14.58105	126.8457
3.286809	140	14.55664	136.8809
3.294835	145	14.52539	144.7666
3.30286	141	14.49121	149.959
3.310885	166	14.45605	152.084
3.318911	160	14.41699	150.9736
3.326936	146	14.37695	146.6992
3.334962	147	14.33301	139.5479
3.342987	134	14.28906	129.999
3.351013	112	14.24414	118.665
3.359038	102	14.22656	106.2529
3.367064	97	14.22656	93.43359
3.375089	72	14.22266	80.80859
3.383114	57	14.21387	68.89355
3.39114	61	14.20117	58.07227
3.399165	42	14.18652	48.59277
3.407191	51	14.16504	40.56055
3.415216	39	14.13867	33.97949
3.423242	29	14.11328	28.7666
3.431267	24	14.10742	24.80273
3.439292	16	14.09863	21.89746
3.447318	22	14.08887	19.88379
3.455343	20	14.07617	18.59961
3.463369	21	14.06055	17.91113
3.471394	22	14.04102	17.70996
3.47942	15	14.02051	17.91699
3.487445	23	13.99805	18.47559
3.495471	26	13.97266	19.34766
3.503496	19	13.94727	20.50781
3.511522	23	13.91992	21.93848
3.519547	20	13.88965	23.62109
3.527572	22	13.8584	25.54102
3.535598	27	13.82324	27.68066
3.543623	39	13.78809	30.02734
3.551649	38	13.75	32.57031
3.559674	46	13.71094	35.31055
3.5677	30	13.67188	38.26172
3.575725	41	13.63184	41.45313
3.58375	55	13.59277	44.92871
3.591776	54	13.58789	48.77344
3.599801	46	13.57813	52.99609
3.607827	72	13.56445	57.62793
3.615852	63	13.54688	62.66699
3.623878	66	13.52637	68.06055
3.631903	67	13.50098	73.68945
3.639929	85	13.47168	79.37598
3.647954	68	13.44336	84.87598
3.655979	80	13.42871	89.91406
3.664005	86	13.41211	94.15723
3.67203	98	13.39453	97.30273
3.680056	117	13.375	99.08496
3.688081	98	13.35254	99.31543
3.696107	110	13.32813	97.90234
3.704132	94	13.30176	94.86816
3.712157	92	13.27441	90.34375
3.720183	85	13.24512	84.55664
3.728208	77	13.21582	77.81152
3.736234	66	13.18555	70.45313
3.744259	82	13.15723	62.83887
3.752285	70	13.12891	55.29785
3.76031	44	13.09961	48.11621
3.768336	45	13.07031	41.51465
3.776361	32	13.03711	35.64063
3.784386	32	13.00293	30.57324
3.792412	17	12.9668	26.33008
3.800437	22	12.93066	22.875
3.808463	20	12.89453	20.13965
3.816488	18	12.87305	18.04785
3.824514	16	12.84668	16.47949
3.832539	15	12.82031	15.34277
3.840564	13	12.7959	14.5498
3.84859	17	12.76758	14.02344
3.856616	18	12.7373	13.7041
3.864641	24	12.7041	13.55078
3.872666	15	12.6709	13.53418
3.880692	19	12.62988	13.63379
3.888717	14	12.58594	13.84473
3.896743	16	12.54199	14.1709
3.904768	16	12.52344	14.6416
3.912794	16	12.50488	15.2334
3.920819	20	12.4834	15.94531
3.928844	16	12.45996	16.77637
3.93687	19	12.42969	17.70703
3.944895	21	12.39453	18.72168
3.952921	12	12.3584	19.79102
3.960946	24	12.32031	20.87793
3.968972	26	12.2832	21.93457
3.976997	15	12.2373	22.90039
3.985023	23	12.18359	23.72461
3.993048	28	12.13086	24.36523
4.001073	28	12.12988	24.83301
4.009099	33	12.12305	25.04199
4.017124	19	12.10156	24.96875
4.02515	24	12.07227	24.62402
4.033175	21	12.04102	24.03418
4.041201	17	11.99902	23.22266
4.049226	22	11.95117	22.24121
4.057251	22	11.9043	21.14551
4.065277	17	11.89746	20.03125
4.073302	26	11.88867	18.90625
4.081328	15	11.86719	17.80371
4.089353	18	11.83887	16.7666
4.097379	9	11.80664	15.82324
4.105404	22	11.7666	14.98633
4.11343	14	11.72266	14.26465
4.121455	18	11.67871	13.66016
4.12948	14	11.64648	13.17383
4.137506	13	11.61328	12.7832
4.145531	16	11.58105	12.47363
4.153557	12	11.54785	12.23145
4.161582	11	11.51465	12.04102
4.169608	7	11.46973	11.87891
4.177633	15	11.4248	11.74707
4.185658	10	11.38281	11.64063
4.193684	18	11.34082	11.5498
4.201709	9	11.27441	11.44727
4.209735	19	11.19531	11.33984
4.217761	12	11.11719	11.24121
4.225786	9	11.16504	11.27441
4.233811	11	11.20117	11.30078
4.241837	7	11.20313	11.29883
4.249862	9	11.18945	11.28613
4.257887	13	11.1748	11.28027
4.265913	10	11.18359	11.30566
4.273939	14	11.17969	11.33008
4.281964	13	11.17578	11.37109
4.289989	12	11.17969	11.44238
4.298015	12	11.1748	11.53906
4.30604	12	11.16016	11.67383
4.314065	18	11.13867	11.87305
4.322091	15	11.11816	12.17285
4.330117	12	11.12207	12.63379
4.338142	13	11.12012	13.27832
4.346168	13	11.10449	14.15723
4.354193	18	11.08301	15.35352
4.362218	15	11.06055	16.95801
4.370244	20	11.05859	19.08594
4.378269	18	11.05078	21.8125
4.386295	26	11.03223	25.22852
4.39432	27	11.00781	29.42871
4.402346	30	10.9834	34.4834
4.410371	26	10.98145	40.44824
4.418396	42	10.97363	47.28027
4.426422	33	10.95508	54.90527
4.434447	67	10.93066	63.19043
4.442473	62	10.90625	71.93945
4.450498	75	10.90723	80.90918
4.458524	94	10.90527	89.74609
4.466549	102	10.89355	98.08301
4.474575	104	10.87695	105.5518
4.4826	132	10.86035	111.8008
4.490625	105	10.84766	116.5205
4.498651	127	10.83105	119.4668
4.506676	127	10.81445	120.5029
4.514702	150	10.79883	119.5996
4.522727	115	10.78125	116.8398
4.530753	129	10.75781	112.415
4.538778	110	10.73242	106.6143
4.546803	89	10.70703	99.79004
4.554829	85	10.69824	92.34375
4.562854	70	10.68945	84.64258
4.57088	76	10.6748	77.03613
4.578905	85	10.65625	69.82227
4.586931	80	10.63477	63.22852
4.594956	66	10.60938	57.39551
4.602982	55	10.58203	52.38477
4.611007	54	10.55469	48.18457
4.619032	45	10.53223	44.72461
4.627058	32	10.50879	41.88574
4.635083	52	10.48535	39.5293
4.643109	43	10.46191	37.51465
4.651134	30	10.44629	35.71777
4.65916	35	10.42773	34.02051
4.667185	32	10.40625	32.3457
4.67521	43	10.37988	30.64648
4.683236	32	10.35156	28.91016
4.691261	19	10.31738	27.14648
4.699287	34	10.2793	25.38867
4.707313	30	10.24219	23.68457
4.715338	21	10.21875	22.09668
4.723363	24	10.19434	20.65723
4.731389	19	10.1709	19.40527
4.739414	15	10.14746	18.37305
4.747439	16	10.12305	17.57422
4.755465	23	10.09473	17.0127
4.763491	14	10.05859	16.68164
4.771516	20	10.02051	16.56934
4.779541	11	9.982422	16.66113
4.787567	15	9.943359	16.93262
4.795592	14	9.894531	17.35645
4.803617	21	9.84668	17.91992
4.811643	17	9.830078	18.6377
4.819669	23	9.80957	19.46289
4.827694	19	9.783203	20.38477
4.83572	24	9.753906	21.39746
4.843745	27	9.72168	22.49609
4.85177	16	9.688477	23.6709
4.859796	33	9.654297	24.90625
4.867821	30	9.618164	26.17871
4.875847	22	9.580078	27.45508
4.883872	45	9.540039	28.69434
4.891898	24	9.499023	29.84863
4.899923	32	9.456055	30.85938
4.907948	39	9.412109	31.67383
4.915974	31	9.367188	32.23926
4.923999	32	9.321289	32.50879
4.932025	30	9.273438	32.45215
4.94005	25	9.224609	32.05371
4.948076	36	9.176758	31.31641
4.956101	30	9.128906	30.26172
4.964127	31	9.081055	28.92871
4.972152	28	9.033203	27.36816
4.980177	22	8.977539	25.63672
4.988203	18	8.919922	23.80566
4.996228	17	8.859375	21.94238
5.004254	22	8.789063	20.10156
5.012279	24	8.712891	18.34277
5.020305	25	8.629883	16.70996
5.02833	17	8.544922	15.23633
5.036355	15	8.460938	13.94629
5.044381	13	8.456055	12.92676
5.052406	21	8.439453	12.08301
5.060432	16	8.421875	11.41797
5.068457	13	8.405273	10.91699
5.076483	14	8.376953	10.54785
5.084508	10	8.349609	10.2998
5.092534	9	8.321289	10.14941
5.100559	11	8.288086	10.07129
5.108584	13	8.25293	10.0459
5.11661	8	8.216797	10.05664
5.124635	5	8.178711	10.08496
5.132661	6	8.129883	10.10938
5.140686	8	8.076172	10.125
5.148712	10	8.019531	10.125
5.156737	15	7.960938	10.10645
5.164762	10	7.897461	10.06738
5.172788	20	7.833008	10.01074
5.180813	15	7.767578	9.942383
5.188839	13	7.699219	9.866211
5.196864	9	7.628906	9.790039
5.20489	13	7.552734	9.720703
5.212915	8	7.466797	9.661133
5.220941	13	7.376953	9.625
5.228966	7	7.28125	9.618164
5.236991	20	7.183594	9.649414
5.245017	9	7.084961	9.727539
5.253042	14	6.984375	9.853516
5.261068	16	6.884766	10.03223
5.269094	10	6.785156	10.26563
5.277119	12	6.813477	10.68457
5.285144	20	6.835938	11.15527
5.293169	15	6.836914	11.66504
5.301195	13	6.827148	12.22461
5.30922	13	6.817383	12.84473
5.317246	28	6.804688	13.52051
5.325272	22	6.783203	14.24023
5.333297	15	6.756836	15.00098
5.341322	13	6.725586	15.78711
5.349348	27	6.691406	16.58203
5.357373	21	6.643555	17.35254
5.365398	15	6.588867	18.07813
5.373424	13	6.530273	18.73242
5.38145	14	6.470703	19.28516
5.389475	15	6.408203	19.70605
5.397501	20	6.34375	19.9707
5.405526	17	6.279297	20.06055
5.413551	21	6.196289	19.94629
5.421576	22	6.105469	19.63672
5.429602	16	6.015625	19.14648
5.437628	15	5.914063	18.48242
5.445653	16	5.803711	17.66797
5.453679	11	5.686523	16.7373
5.461704	18	5.567383	15.72852
5.469729	16	5.449219	14.67871
5.477755	14	5.320313	13.60938
5.48578	12	5.178711	12.54492
5.493806	19	5.038086	11.52539
5.501831	20	5.098633	10.76758
5.509857	14	5.146484	10.06836
5.517882	18	5.170898	9.424805
5.525908	11	5.18457	8.84668
5.533933	8	5.197266	8.34375
5.541958	9	5.209961	7.908203
5.549984	14	5.211914	7.524414
5.558009	9	5.200195	7.179688
