SampleIdent               : oreas 25a
TimeMeasured              : 16/08/2017 12:17:07
Application               : <Omnian>
ConditionSet              : Omnian
Instrument                : Epsilon1
InstrumentSerial          : 672 (M-672)
TubeAnode                 : Ag 50
Detector                  : SDD5
kV                        : 50.000
mA                        : 0.100
uA                        : 100
Filter                    : Ag 100
Medium                    : Air
PeakingTimeNr             : 3
ZeroReference             : -0.006660745945
GainReference             : 0.008007249795
NoiseReference            : 0.071620985866
FanoReference             : 0.127556249499
ZeroInit                  : -0.006602666806
GainInit                  : 0.008007533848
NoiseInit                 : 0.073252178729
FanoInit                  : 0.128453314304
ZeroFit                   : -0.011695506983
GainFit                   : 0.008025599644
NoiseFit                  : 0.068348698318
FanoFit                   : 0.138704299927
NormFactor                : 1.001468539238
NormRefCounts             : 66115.265625000000
NormCurCounts             : 66018.312500000000
ROI-Fit (chan)            : 250
ROI-Fit (chan)            : 4094
Chi-square                : 1.471721053123
RefPressure               : 974.60
RefTemp                   : 29.300
MeasPressure              : 1005.34
MeasTemp                  : 31.200
Delta_hPa                 : 24.120397567749
HeliumFlow                : 0.00
LiveTime                  : 8.532597600000
TrueTime                  : 12.000492000000
FastChanLiveT             : 9.972205000000
FastChanDeadT             : 2.028287000000
DeadTime                  : 3.467894400000
DeadTimePct               : 28.898
FastChanCounts            : 717400
OutputCounts              : 616314
UnderflowCounts           : 0
OverflowCounts            : -16753
TotalCounts               : 633067
NrOfChannels              : 4096
Energy (keV)	Counts	Background	Fit
-1.169551E-02	0	0	0
-3.669907E-03	0	0	0
4.355692E-03	1	0	0
1.238129E-02	0	0	0
2.040689E-02	1	0	0
2.843249E-02	1	0	0
3.645809E-02	0	0	0
4.448369E-02	0	0	0
5.250929E-02	0	0	0
6.053489E-02	0	0	0
6.856049E-02	0	0	0
7.658609E-02	0	0	0
8.461169E-02	0	0	0
9.263729E-02	0	0	0
0.1006629	0	0	0
0.1086885	0	0	0
0.1167141	0	0	0
0.1247397	0	0	0
0.1327653	0	0	0
0.1407909	0	0	0
0.1488165	0	0	0
0.1568421	0	0	0
0.1648677	0	0	0
0.1728933	0	0	0
0.1809189	0	0	0
0.1889445	0	0	0
0.1969701	0	0	0
0.2049957	0	0	0
0.2130213	0	0	0
0.2210469	0	0	0
0.2290725	0	0	0
0.2370981	0	0	0
0.2451237	0	0	0
0.2531493	0	0	0
0.2611749	0	0	0
0.2692005	0	0	0
0.2772261	0	0	0
0.2852517	0	0	0
0.2932773	0	0	0
0.3013029	0	0	0
0.3093285	0	0	0
0.3173541	0	0	0
0.3253797	0	0	0
0.3334053	0	0	0
0.3414309	0	0	0
0.3494565	0	0	0
0.3574821	0	0	0
0.3655077	0	0	0
0.3735333	0	0	0
0.3815589	0	0	0
0.3895845	0	0	0
0.3976101	0	0	0
0.4056357	0	0	0
0.4136613	0	0	0
0.4216869	0	0	0
0.4297125	0	0	0
0.4377381	0	0	0
0.4457637	0	0	0
0.4537893	0	0	0
0.4618149	0	0	0
0.4698405	0	0	0
0.4778661	0	0	0
0.4858917	0	0	0
0.4939173	0	0	0
0.5019429	0	0	0
0.5099685	0	0	0
0.517994	0	0	0
0.5260197	0	0	0
0.5340453	0	0	0
0.5420709	0	0	0
0.5500965	0	0	0
0.558122	0	0	0
0.5661477	0	0	0
0.5741733	1	0	0
0.5821989	2	0	0
0.5902244	1	0	0
0.5982501	3	0	0
0.6062757	2	0	0
0.6143013	0	0	0
0.6223269	0	0	0
0.6303524	3	0	0
0.6383781	2	0	0
0.6464037	2	0	0
0.6544293	4	0	0
0.6624548	3	0	0
0.6704805	17	0	0
0.6785061	6	0	0
0.6865317	10	0	0
0.6945572	7	0	0
0.7025828	12	0	0
0.7106085	13	0	0
0.7186341	18	0	0
0.7266597	19	0	0
0.7346852	17	0	0
0.7427109	19	0	0
0.7507365	34	0	0
0.7587621	27	0	0
0.7667876	26	0	0
0.7748132	23	0	0
0.7828389	32	0	0
0.7908645	38	0	0
0.7988901	27	0	0
0.8069156	30	0	0
0.8149412	47	0	0
0.8229669	46	0	0
0.8309925	39	0	0
0.839018	46	0	0
0.8470436	38	0	0
0.8550693	41	0	0
0.8630949	37	0	0
0.8711205	56	0	0
0.879146	48	0	0
0.8871716	63	0	0
0.8951973	38	0	0
0.9032229	50	0	0
0.9112484	40	0	0
0.919274	55	0	0
0.9272997	54	0	0
0.9353253	42	0	0
0.9433509	49	0	0
0.9513764	46	0	0
0.959402	52	0	0
0.9674277	52	0	0
0.9754533	51	0	0
0.9834788	57	0	0
0.9915044	46	0	0
0.9995301	59	0	0
1.007556	50	0	0
1.015581	48	0	0
1.023607	42	0	0
1.031632	47	0	0
1.039658	50	0	0
1.047684	55	0	0
1.055709	51	0	0
1.063735	46	0	0
1.07176	44	0	0
1.079786	45	0	0
1.087812	40	0	0
1.095837	37	0	0
1.103863	50	0	0
1.111888	39	0	0
1.119914	41	0	0
1.12794	42	0	0
1.135965	44	0	0
1.143991	44	0	0
1.152016	49	0	0
1.160042	45	0	0
1.168068	41	0	0
1.176093	40	0	0
1.184119	50	0	0
1.192144	47	0	0
1.20017	58	0	0
1.208196	44	0	0
1.216221	50	0	0
1.224247	34	0	0
1.232272	49	0	0
1.240298	48	0	0
1.248324	57	0	0
1.256349	51	0	0
1.264375	44	0	0
1.2724	52	0	0
1.280426	48	0	0
1.288452	40	0	0
1.296477	42	0	0
1.304503	40	0	0
1.312528	51	0	0
1.320554	43	0	0
1.32858	51	0	0
1.336605	37	0	0
1.344631	41	0	0
1.352656	41	0	0
1.360682	48	0	0
1.368708	43	0	0
1.376733	45	0	0
1.384759	42	0	0
1.392784	49	0	0
1.40081	36	0	0
1.408836	52	0	0
1.416861	45	0	0
1.424887	42	0	0
1.432912	48	0	0
1.440938	57	0	0
1.448964	41	0	0
1.456989	51	0	0
1.465015	33	0	0
1.47304	44	0	0
1.481066	49	0	0
1.489092	41	0	0
1.497117	44	0	0
1.505143	60	0	0
1.513168	47	0	0
1.521194	52	0	0
1.52922	51	0	0
1.537245	52	0	0
1.545271	46	0	0
1.553296	52	0	0
1.561322	57	0	0
1.569348	57	0	0
1.577373	47	0	0
1.585399	37	0	0
1.593424	44	0	0
1.60145	38	0	0
1.609476	52	0	0
1.617501	48	0	0
1.625527	38	0	0
1.633552	40	0	0
1.641578	40	0	0
1.649604	40	0	0
1.657629	53	0	0
1.665655	45	0	0
1.67368	48	0	0
1.681706	41	0	0
1.689732	49	0	0
1.697757	52	0	0
1.705783	54	0	0
1.713808	51	0	0
1.721834	66	0	0
1.72986	64	0	0
1.737885	60	0	0
1.745911	47	0	0
1.753936	54	0	0
1.761962	57	0	0
1.769988	53	0	0
1.778013	36	0	0
1.786039	56	0	0
1.794064	45	0	0
1.80209	37	0	0
1.810116	31	0	0
1.818141	34	0	0
1.826167	23	0	0
1.834192	46	0	0
1.842218	43	0	0
1.850244	37	0	0
1.858269	35	0	0
1.866295	39	0	0
1.87432	18	0	0
1.882346	43	0	0
1.890372	32	0	0
1.898397	37	0	0
1.906423	33	0	0
1.914448	41	0	0
1.922474	40	0	0
1.9305	25	0	0
1.938525	30	0	0
1.946551	37	0	0
1.954576	23	0	0
1.962602	25	0	0
1.970628	30	0	0
1.978653	25	0	0
1.986679	22	0	0
1.994704	38	26.55762	34.69238
2.00273	23	26.22949	30.15527
2.010756	31	25.90332	27.76465
2.018781	27	25.58008	26.46387
2.026807	31	25.25781	25.69922
2.034832	25	25.10547	25.36133
2.042858	30	24.94629	25.14648
2.050884	10	24.7627	24.95801
2.058909	28	24.56641	24.84082
2.066935	26	24.37109	24.76465
2.07496	18	24.20996	24.77051
2.082986	20	24.04297	24.82813
2.091012	27	23.86523	24.9375
2.099037	32	23.68262	25.10352
2.107063	29	23.50098	25.3291
2.115088	29	23.31738	25.59766
2.123114	21	23.13086	25.88867
2.13114	26	22.94531	26.17969
2.139165	24	22.75391	26.43262
2.147191	23	22.55664	26.62109
2.155216	31	22.35645	26.71973
2.163242	22	22.1543	26.71484
2.171268	20	21.9541	26.60156
2.179293	25	21.74707	26.37988
2.187319	27	21.53711	26.06836
2.195344	27	21.32715	25.69336
2.20337	29	21.14844	25.31348
2.211396	20	20.96191	24.91211
2.219421	23	20.77637	24.5166
2.227447	26	20.59375	24.14063
2.235472	37	20.41016	23.78125
2.243498	30	20.22266	23.42969
2.251523	28	20.03027	23.0752
2.259549	28	19.83594	22.71191
2.267575	22	19.62891	22.32031
2.2756	27	19.41602	21.90332
2.283626	21	19.2041	21.46875
2.291651	20	18.99512	21.02441
2.299677	14	18.78418	20.57324
2.307703	22	18.56445	20.11914
2.315728	18	18.33691	19.67188
2.323754	17	18.10742	19.24316
2.331779	19	17.8623	18.82324
2.339805	19	17.61035	18.42383
2.347831	15	17.36035	18.0498
2.355856	20	17.38184	17.96875
2.363882	12	17.38965	17.89355
2.371907	16	17.37109	17.80469
2.379933	21	17.33887	17.71484
2.387959	28	17.30566	17.63379
2.395984	16	17.28906	17.5752
2.40401	17	17.26953	17.51953
2.412036	15	17.24414	17.46582
2.420061	17	17.20703	17.40332
2.428087	21	17.16406	17.33887
2.436112	18	17.11426	17.27246
2.444138	21	17.06152	17.20605
2.452164	21	17.00781	17.13965
2.460189	14	16.95313	17.07422
2.468215	16	16.89844	17.00977
2.47624	13	16.83301	16.93457
2.484266	16	16.75781	16.85059
2.492292	16	16.68359	16.76855
2.500317	13	16.69727	16.77637
2.508343	26	16.70117	16.77637
2.516368	18	16.69531	16.77246
2.524394	17	16.67285	16.75586
2.53242	11	16.64258	16.7373
2.540445	25	16.60449	16.72168
2.548471	14	16.56445	16.71094
2.556496	14	16.52441	16.71094
2.564522	19	16.51465	16.75
2.572548	20	16.50391	16.79883
2.580573	18	16.49023	16.84863
2.588599	16	16.46973	16.89844
2.596624	19	16.44238	16.94141
2.60465	19	16.41211	16.97852
2.612676	15	16.37695	17.00781
2.620701	18	16.33789	17.02441
2.628727	11	16.2959	17.03125
2.636752	21	16.24805	17.02637
2.644778	20	16.19531	17.01465
2.652804	18	16.14355	17.00586
2.660829	12	16.13281	17.04883
2.668855	17	16.11621	17.10352
2.67688	11	16.08398	17.16797
2.684906	19	16.04004	17.25
2.692932	19	15.99023	17.3584
2.700957	17	15.93164	17.48633
2.708983	22	15.86816	17.63281
2.717008	17	15.80566	17.79199
2.725034	16	15.81348	18.02051
2.73306	24	15.81055	18.21875
2.741085	19	15.7998	18.375
2.749111	23	15.77539	18.46875
2.757136	15	15.74609	18.49609
2.765162	19	15.71191	18.4541
2.773188	23	15.67578	18.3457
2.781213	22	15.63965	18.17969
2.789239	19	15.62305	17.98633
2.797264	20	15.60645	17.76465
2.80529	12	15.58789	17.53223
2.813316	26	15.56641	17.31445
2.821341	13	15.53613	17.12598
2.829367	11	15.50098	17.00195
2.837392	18	15.46387	16.96973
2.845418	11	15.4248	17.06445
2.853444	20	15.38574	17.31738
2.861469	21	15.33789	17.75391
2.869495	9	15.28613	18.41309
2.87752	13	15.23438	19.32617
2.885546	20	15.2168	20.54883
2.893572	22	15.19336	22.0498
2.901597	18	15.16016	23.81543
2.909623	21	15.11426	25.80957
2.917648	35	15.06152	27.97754
2.925674	31	15.00195	30.23633
2.9337	39	14.94043	32.48047
2.941725	38	14.87891	34.58887
2.949751	34	14.88184	36.49316
2.957776	42	14.87207	37.99316
2.965802	47	14.85547	38.99219
2.973828	47	14.83008	39.41406
2.981853	30	14.80176	39.2334
2.989879	43	14.76953	38.46484
2.997904	39	14.7373	37.16797
3.00593	35	14.70508	35.44141
3.013956	26	14.68164	33.41895
3.021981	30	14.65625	31.22949
3.030007	24	14.62988	29.01758
3.038032	33	14.60352	26.91602
3.046058	24	14.57227	25.03027
3.054084	23	14.53906	23.44922
3.062109	22	14.5	22.22168
3.070135	19	14.45898	21.37402
3.07816	24	14.41797	20.90234
3.086186	19	14.37695	20.77637
3.094212	23	14.33301	20.93945
3.102237	23	14.28809	21.3291
3.110263	23	14.25684	21.88477
3.118288	17	14.22168	22.50586
3.126314	25	14.18262	23.11816
3.13434	22	14.13184	23.64648
3.142365	29	14.07617	24.04199
3.150391	23	14.01758	24.27148
3.158416	26	13.95801	24.32422
3.166442	21	13.89746	24.21094
3.174468	25	13.88867	24.01465
3.182493	23	13.87012	23.72949
3.190519	34	13.84766	23.42578
3.198544	20	13.81641	23.18066
3.20657	17	13.78223	23.07617
3.214596	21	13.74805	23.19043
3.222621	26	13.71387	23.58398
3.230647	29	13.6748	24.29004
3.238672	25	13.63574	25.32715
3.246698	32	13.61621	26.69824
3.254724	33	13.59375	28.32813
3.262749	29	13.56445	30.13281
3.270775	36	13.53125	32.00586
3.2788	32	13.49805	33.8252
3.286826	32	13.45801	35.45117
3.294852	27	13.41602	36.75879
3.302877	45	13.37402	37.64063
3.310903	30	13.33398	38.01953
3.318928	36	13.29492	37.84961
3.326954	49	13.25488	37.13086
3.33498	46	13.21484	35.90625
3.343005	46	13.1709	34.24707
3.351031	28	13.12598	32.26172
3.359056	26	13.07617	30.06641
3.367082	21	13.02441	27.78418
3.375108	34	12.97266	25.53027
3.383133	23	12.91992	23.40039
3.391159	22	12.86523	21.4668
3.399184	22	12.81055	19.78027
3.40721	19	12.79395	18.40234
3.415236	16	12.77539	17.29492
3.423261	25	12.74219	16.43164
3.431287	24	12.70215	15.79297
3.439312	13	12.66309	15.35254
3.447338	14	12.63086	15.08203
3.455364	15	12.58691	14.92773
3.463389	9	12.54297	14.86816
3.471415	18	12.52734	14.90723
3.47944	17	12.50586	14.98828
3.487466	13	12.47656	15.0957
3.495492	18	12.44238	15.22168
3.503517	18	12.4043	15.36523
3.511543	13	12.36328	15.52734
3.519568	17	12.32129	15.71191
3.527594	17	12.27734	15.92969
3.535619	16	12.23438	16.18848
3.543645	17	12.18848	16.50293
3.551671	11	12.14063	16.88867
3.559696	16	12.09277	17.36914
3.567722	21	12.04492	17.9668
3.575747	14	11.99707	18.71094
3.583773	18	11.94727	19.625
3.591799	23	11.8916	20.73242
3.599824	24	11.83594	22.05859
3.60785	25	11.79297	23.62402
3.615875	21	11.74316	25.40234
3.623901	15	11.68848	27.36328
3.631927	28	11.62988	29.45703
3.639952	31	11.57227	31.60742
3.647978	40	11.55859	33.75684
3.656003	32	11.53125	35.73242
3.664029	30	11.50293	37.42773
3.672055	36	11.48438	38.73438
3.68008	43	11.45898	39.54102
3.688106	43	11.43457	39.7832
3.696131	42	11.41309	39.43652
3.704157	43	11.38867	38.49902
3.712183	44	11.35645	37.01953
3.720208	36	11.32129	35.08301
3.728234	37	11.28223	32.80176
3.736259	30	11.24121	30.30078
3.744285	28	11.19824	27.7041
3.752311	21	11.15332	25.13086
3.760336	24	11.1084	22.68164
3.768362	19	11.06055	20.43164
3.776387	13	11.0127	18.43066
3.784413	15	10.95801	16.70117
3.792439	22	10.90039	15.24902
3.800464	16	10.84375	14.06348
3.80849	16	10.79199	13.12598
3.816515	10	10.73145	12.3877
3.824541	16	10.6709	11.8252
3.832567	13	10.62891	11.42285
3.840592	10	10.5791	11.12402
3.848618	9	10.50977	10.8916
3.856643	16	10.43066	10.7168
3.864669	8	10.35156	10.5957
3.872695	11	10.36035	10.60645
3.88072	11	10.35254	10.6377
3.888746	15	10.34473	10.70703
3.896771	10	10.33887	10.81641
3.904797	11	10.3291	10.96094
3.912823	15	10.30762	11.13379
3.920848	11	10.28027	11.34473
3.928874	19	10.25293	11.5957
3.936899	8	10.22559	11.88574
3.944925	11	10.19531	12.20605
3.952951	21	10.16016	12.54199
3.960976	13	10.12207	12.88477
3.969002	15	10.08008	13.21582
3.977027	14	10.03613	13.52051
3.985053	13	9.992188	13.78125
3.993079	8	9.947266	13.97949
4.001104	24	9.901367	14.10156
4.00913	10	9.841797	14.12598
4.017156	15	9.776367	14.05371
4.025181	23	9.711914	13.89355
4.033207	14	9.665039	13.66895
4.041232	17	9.603516	13.36035
4.049258	17	9.542969	12.99707
4.057283	12	9.499023	12.61426
4.065309	16	9.447266	12.2041
4.073335	16	9.366211	11.76563
4.08136	16	9.272461	11.32715
4.089386	15	9.178711	10.91504
4.097412	6	9.208008	10.65918
4.105437	13	9.21875	10.42285
4.113463	10	9.227539	10.22363
4.121488	12	9.225586	10.05078
4.129514	12	9.21875	9.905273
4.137539	12	9.195313	9.772461
4.145565	10	9.164063	9.654297
4.153591	12	9.132813	9.553711
4.161616	9	9.119141	9.484375
4.169642	13	9.103516	9.421875
4.177668	8	9.076172	9.353516
4.185693	13	9.042969	9.285156
4.193719	10	9.004883	9.214844
4.201744	10	8.964844	9.144531
4.20977	9	8.924805	9.076172
4.217795	16	8.881836	9.008789
4.225821	10	8.837891	8.943359
4.233847	15	8.772461	8.860352
4.241872	6	8.697266	8.770508
4.249898	8	8.623047	8.686523
4.257924	12	8.59082	8.652344
4.265949	7	8.53418	8.602539
4.273975	15	8.476563	8.568359
4.282	15	8.43457	8.573242
4.290026	12	8.381836	8.604492
4.298051	8	8.291992	8.658203
4.306077	8	8.183594	8.78418
4.314103	11	8.076172	9.048828
4.322128	13	8.166992	9.71582
4.330154	15	8.233398	10.65723
4.33818	20	8.267578	11.98535
4.346205	14	8.28418	13.87988
4.354231	16	8.301758	16.55762
4.362257	24	8.3125	20.25586
4.370282	26	8.300781	25.24121
4.378307	28	8.290039	31.84668
4.386333	36	8.326172	40.44434
4.394359	57	8.354492	51.28711
4.402384	68	8.356445	64.62305
4.41041	77	8.344727	80.64355
4.418436	89	8.333984	99.41406
4.426461	131	8.358398	120.8564
4.434487	132	8.380859	144.6152
4.442513	188	8.384766	170.1406
4.450538	188	8.379883	196.6846
4.458563	210	8.370117	223.3047
4.466589	258	8.355469	248.9033
4.474615	245	8.338867	272.3125
4.48264	314	8.311523	292.3701
4.490666	336	8.279297	308.0361
4.498692	350	8.24707	318.4775
4.506717	306	8.250977	323.1787
4.514743	286	8.241211	321.877
4.522768	329	8.208008	314.7148
4.530794	284	8.163086	302.2021
4.538819	296	8.118164	285.1514
4.546845	256	8.134766	264.6504
4.554871	258	8.117188	241.7568
4.562896	207	8.100586	217.6904
4.570922	197	8.094727	193.5781
4.578948	166	8.082031	170.3701
4.586973	146	8.037109	148.8018
4.594999	140	7.975586	129.4141
4.603024	115	7.914063	112.5068
4.61105	92	7.927734	98.21777
4.619075	92	7.919922	86.32422
4.627101	88	7.880859	76.55859
4.635127	74	7.825195	68.59375
4.643152	64	7.770508	62.06836
4.651178	58	7.762695	56.66309
4.659204	67	7.737305	51.9873
4.667229	66	7.704102	47.78516
4.675255	57	7.666016	43.87109
4.68328	38	7.628906	40.12402
4.691306	59	7.602539	36.49902
4.699331	31	7.552734	32.95117
4.707357	42	7.503906	29.53125
4.715383	23	7.505859	26.33887
4.723408	32	7.500977	23.36719
4.731434	29	7.448242	20.63281
4.73946	15	7.373047	18.2041
4.747485	20	7.298828	16.14063
4.755511	20	7.320313	14.5625
4.763536	24	7.321289	13.37109
4.771562	32	7.297852	12.57422
4.779587	20	7.251953	12.1875
4.787613	21	7.195313	12.23828
4.795639	17	7.125977	12.74512
4.803664	20	7.050781	13.74023
4.81169	17	6.975586	15.26074
4.819715	23	6.977539	17.41113
4.827741	28	6.975586	20.13184
4.835767	26	6.951172	23.41309
4.843792	26	6.915039	27.25488
4.851818	38	6.879883	31.625
4.859843	36	6.875	36.47949
4.867869	39	6.870117	41.67383
4.875895	57	6.835938	47.02832
4.88392	51	6.789063	52.37109
4.891946	58	6.735352	57.50098
4.899971	57	6.677734	62.19727
4.907997	65	6.620117	66.24219
4.916023	63	6.556641	69.42676
4.924048	87	6.467773	71.56836
4.932074	88	6.380859	72.57227
4.940099	75	6.363281	72.4502
4.948125	63	6.336914	71.12988
4.956151	55	6.242188	68.62012
4.964176	67	6.115234	65.08594
4.972202	64	5.989258	60.73535
4.980227	48	5.989258	55.89746
4.988253	55	5.960938	50.64063
4.996279	44	5.894531	45.17383
5.004304	37	5.797852	39.70898
5.01233	34	5.688477	34.43848
5.020356	26	5.560547	29.49707
5.028381	23	5.423828	24.99512
5.036407	27	5.290039	21.00488
5.044432	16	5.325195	17.71777
5.052458	19	5.354492	14.95215
5.060483	14	5.369141	12.66895
5.068509	19	5.376953	10.83008
5.076535	8	5.384766	9.386719
5.08456	8	5.417969	8.304688
5.092586	19	5.446289	7.493164
5.100612	13	5.438477	6.868164
5.108637	7	5.411133	6.400391
5.116663	9	5.375977	6.057617
5.124688	8	5.335938	5.813477
5.132714	9	5.295898	5.646484
5.140739	9	5.224609	5.508789
5.148765	14	5.130859	5.396484
5.156791	13	5.039063	5.324219
5.164816	20	5.013672	5.357422
5.172842	17	4.975586	5.411133
5.180868	9	4.875	5.438477
5.188893	13	4.744141	5.474609
5.196918	15	4.615234	5.554688
5.204944	13	4.577148	5.772461
5.21297	12	4.507813	6.007813
5.220995	13	4.400391	6.255859
5.229021	8	4.268555	6.533203
5.237047	7	4.125977	6.856445
5.245072	14	3.961914	7.214844
5.253098	10	3.789063	7.621094
5.261124	16	3.620117	8.088867
5.269149	17	3.666016	8.832031
5.277174	9	3.701172	9.626953
5.2852	17	3.730469	10.48242
5.293226	15	3.756836	11.4043
5.301251	15	3.783203	12.40039
5.309277	18	3.817383	13.48145
5.317303	21	3.849609	14.63867
5.325328	23	3.852539	15.83887
5.333354	17	3.84082	17.08691
5.34138	23	3.821289	18.37109
5.349405	24	3.797852	19.66992
5.35743	20	3.774414	20.9502
5.365456	27	3.733398	22.15039
5.373482	21	3.670898	23.2207
5.381507	23	3.610352	24.13086
5.389533	17	3.59375	24.875
5.397559	15	3.56543	25.35156
5.405584	24	3.487305	25.48828
5.41361	22	3.385742	25.29004
5.421636	22	3.286133	24.77344
5.429661	22	3.193359	23.9541
5.437686	25	3.070313	22.82031
5.445712	25	2.932617	21.4248
5.453738	16	2.787109	19.8252
5.461763	18	2.638672	18.08398
5.469789	14	2.470703	16.24414
5.477815	11	2.296875	14.37695
5.48584	14	2.128906	12.5498
5.493866	15	2.167969	11.00684
5.501892	19	2.203125	9.577148
5.509917	8	2.238281	8.286133
5.517942	5	2.272461	7.150391
5.525968	16	2.306641	6.174805
5.533994	13	2.337891	5.353516
5.542019	8	2.368164	4.680664
5.550045	11	2.380859	4.123047
5.558071	7	2.383789	3.675781
