SampleIdent               : oreas 24c
TimeMeasured              : 16/08/2017 12:59:20
Application               : <Omnian>
ConditionSet              : Omnian
Instrument                : Epsilon1
InstrumentSerial          : 672 (M-672)
TubeAnode                 : Ag 50
Detector                  : SDD5
kV                        : 50.000
mA                        : 0.100
uA                        : 100
Filter                    : Ag 100
Medium                    : Air
PeakingTimeNr             : 3
ZeroReference             : -0.006660745945
GainReference             : 0.008007249795
NoiseReference            : 0.071620985866
FanoReference             : 0.127556249499
ZeroInit                  : -0.006602666806
GainInit                  : 0.008007533848
NoiseInit                 : 0.073252178729
FanoInit                  : 0.128453314304
ZeroFit                   : -0.011056010611
GainFit                   : 0.008025202900
NoiseFit                  : 0.071389243007
FanoFit                   : 0.135180458426
NormFactor                : 1.001468539238
NormRefCounts             : 66115.265625000000
NormCurCounts             : 66018.312500000000
ROI-Fit (chan)            : 250
ROI-Fit (chan)            : 4094
Chi-square                : 1.212115049362
RefPressure               : 974.60
RefTemp                   : 29.300
MeasPressure              : 1004.90
MeasTemp                  : 31.000
Delta_hPa                 : 24.332336425781
HeliumFlow                : 0.00
LiveTime                  : 8.958785700000
TrueTime                  : 12.000495000000
FastChanLiveT             : 10.260781000000
FastChanDeadT             : 1.739714000000
DeadTime                  : 3.041709300000
DeadTimePct               : 25.347
FastChanCounts            : 638212
OutputCounts              : 556077
UnderflowCounts           : 0
OverflowCounts            : -16558
TotalCounts               : 572635
NrOfChannels              : 4096
Energy (keV)	Counts	Background	Fit
-1.105601E-02	0	0	0
-3.030808E-03	0	0	0
4.994395E-03	0	0	0
0.0130196	0	0	0
0.0210448	0	0	0
0.02907	0	0	0
3.709521E-02	0	0	0
4.512041E-02	0	0	0
5.314561E-02	0	0	0
6.117082E-02	0	0	0
6.919602E-02	0	0	0
7.722122E-02	0	0	0
8.524642E-02	0	0	0
9.327163E-02	0	0	0
0.1012968	0	0	0
0.109322	0	0	0
0.1173472	0	0	0
0.1253724	0	0	0
0.1333976	0	0	0
0.1414228	0	0	0
0.1494481	0	0	0
0.1574733	0	0	0
0.1654985	0	0	0
0.1735236	0	0	0
0.1815489	0	0	0
0.1895741	0	0	0
0.1975993	1	0	0
0.2056245	0	0	0
0.2136497	0	0	0
0.2216749	0	0	0
0.2297001	0	0	0
0.2377253	0	0	0
0.2457505	0	0	0
0.2537757	0	0	0
0.2618009	0	0	0
0.2698261	0	0	0
0.2778513	0	0	0
0.2858765	0	0	0
0.2939017	0	0	0
0.3019269	0	0	0
0.3099521	0	0	0
0.3179773	0	0	0
0.3260025	0	0	0
0.3340277	0	0	0
0.3420529	0	0	0
0.3500781	0	0	0
0.3581033	0	0	0
0.3661285	0	0	0
0.3741537	0	0	0
0.3821789	0	0	0
0.3902041	0	0	0
0.3982293	0	0	0
0.4062545	0	0	0
0.4142797	0	0	0
0.422305	0	0	0
0.4303302	0	0	0
0.4383554	0	0	0
0.4463806	0	0	0
0.4544058	0	0	0
0.462431	0	0	0
0.4704562	0	0	0
0.4784814	0	0	0
0.4865066	0	0	0
0.4945318	0	0	0
0.502557	1	0	0
0.5105821	0	0	0
0.5186074	0	0	0
0.5266326	0	0	0
0.5346578	0	0	0
0.542683	1	0	0
0.5507082	2	0	0
0.5587334	1	0	0
0.5667586	2	0	0
0.5747838	4	0	0
0.582809	3	0	0
0.5908342	4	0	0
0.5988594	2	0	0
0.6068846	3	0	0
0.6149098	5	0	0
0.622935	11	0	0
0.6309602	10	0	0
0.6389854	7	0	0
0.6470106	8	0	0
0.6550359	11	0	0
0.663061	18	0	0
0.6710863	12	0	0
0.6791114	15	0	0
0.6871367	21	0	0
0.6951618	16	0	0
0.703187	18	0	0
0.7112123	21	0	0
0.7192374	23	0	0
0.7272627	21	0	0
0.7352878	24	0	0
0.7433131	34	0	0
0.7513382	16	0	0
0.7593635	30	0	0
0.7673886	26	0	0
0.7754139	24	0	0
0.7834391	34	0	0
0.7914643	38	0	0
0.7994895	33	0	0
0.8075147	38	0	0
0.8155399	41	0	0
0.8235651	40	0	0
0.8315903	45	0	0
0.8396155	38	0	0
0.8476407	45	0	0
0.8556659	35	0	0
0.8636911	44	0	0
0.8717163	33	0	0
0.8797415	38	0	0
0.8877667	46	0	0
0.8957919	50	0	0
0.9038171	54	0	0
0.9118423	35	0	0
0.9198675	38	0	0
0.9278927	60	0	0
0.9359179	47	0	0
0.9439431	38	0	0
0.9519683	41	0	0
0.9599935	43	0	0
0.9680188	45	0	0
0.9760439	49	0	0
0.9840692	47	0	0
0.9920943	41	0	0
1.00012	37	0	0
1.008145	43	0	0
1.01617	29	0	0
1.024195	57	0	0
1.03222	44	0	0
1.040246	49	0	0
1.048271	38	0	0
1.056296	34	0	0
1.064321	50	0	0
1.072346	40	0	0
1.080372	43	0	0
1.088397	34	0	0
1.096422	51	0	0
1.104447	58	0	0
1.112472	47	0	0
1.120498	40	0	0
1.128523	58	0	0
1.136548	47	0	0
1.144573	46	0	0
1.152598	53	0	0
1.160624	49	0	0
1.168649	39	0	0
1.176674	43	0	0
1.184699	39	0	0
1.192724	44	0	0
1.20075	44	0	0
1.208775	43	0	0
1.2168	44	0	0
1.224825	41	0	0
1.23285	45	0	0
1.240876	47	0	0
1.248901	44	0	0
1.256926	28	0	0
1.264951	43	0	0
1.272976	41	0	0
1.281002	35	0	0
1.289027	31	0	0
1.297052	43	0	0
1.305077	37	0	0
1.313102	31	0	0
1.321128	41	0	0
1.329153	40	0	0
1.337178	37	0	0
1.345203	47	0	0
1.353228	50	0	0
1.361254	41	0	0
1.369279	48	0	0
1.377304	36	0	0
1.385329	32	0	0
1.393355	37	0	0
1.40138	41	0	0
1.409405	40	0	0
1.41743	36	0	0
1.425455	42	0	0
1.433481	47	0	0
1.441506	48	0	0
1.449531	45	0	0
1.457556	53	0	0
1.465581	47	0	0
1.473606	38	0	0
1.481632	45	0	0
1.489657	41	0	0
1.497682	49	0	0
1.505707	36	0	0
1.513733	45	0	0
1.521758	49	0	0
1.529783	38	0	0
1.537808	26	0	0
1.545833	30	0	0
1.553859	44	0	0
1.561884	36	0	0
1.569909	46	0	0
1.577934	33	0	0
1.585959	44	0	0
1.593985	35	0	0
1.60201	38	0	0
1.610035	39	0	0
1.61806	37	0	0
1.626085	31	0	0
1.634111	28	0	0
1.642136	35	0	0
1.650161	27	0	0
1.658186	34	0	0
1.666211	36	0	0
1.674237	47	0	0
1.682262	43	0	0
1.690287	51	0	0
1.698312	46	0	0
1.706337	53	0	0
1.714363	40	0	0
1.722388	50	0	0
1.730413	59	0	0
1.738438	49	0	0
1.746463	59	0	0
1.754489	57	0	0
1.762514	51	0	0
1.770539	47	0	0
1.778564	45	0	0
1.786589	41	0	0
1.794615	44	0	0
1.80264	32	0	0
1.810665	26	0	0
1.81869	49	0	0
1.826715	39	0	0
1.834741	26	0	0
1.842766	27	0	0
1.850791	26	0	0
1.858816	36	0	0
1.866841	36	0	0
1.874867	33	0	0
1.882892	37	0	0
1.890917	24	0	0
1.898942	33	0	0
1.906968	50	0	0
1.914993	39	0	0
1.923018	25	0	0
1.931043	30	0	0
1.939068	46	0	0
1.947093	39	0	0
1.955119	35	0	0
1.963144	23	0	0
1.971169	27	0	0
1.979194	28	0	0
1.987219	39	0	0
1.995245	35	29.10449	33.67969
2.00327	31	28.83203	32.62109
2.011295	36	28.55469	31.63379
2.01932	32	28.25098	30.71094
2.027345	32	27.93262	29.87012
2.035371	25	27.60547	29.11133
2.043396	24	27.26758	28.42578
2.051421	26	26.92578	27.80957
2.059446	29	26.57422	27.24512
2.067472	25	26.21973	26.72656
2.075497	32	25.86426	26.24805
2.083522	26	25.51074	25.80273
2.091547	21	25.15918	25.38281
2.099572	34	24.94727	25.12109
2.107598	16	24.72461	24.86133
2.115623	22	24.50195	24.61328
2.123648	22	24.29004	24.38379
2.131673	33	24.06348	24.14746
2.139698	16	23.83105	23.91211
2.147724	27	23.58789	23.67383
2.155749	18	23.3418	23.43945
2.163774	31	23.0957	23.21582
2.171799	27	22.85449	23.00781
2.179824	27	22.60156	22.7998
2.18785	28	22.35059	22.60645
2.195875	25	22.14453	22.4707
2.2039	26	21.92773	22.33594
2.211925	13	21.71289	22.21191
2.21995	17	21.49121	22.08594
2.227976	21	21.25488	21.94727
2.236001	28	21.01074	21.79297
2.244026	23	20.76367	21.625
2.252051	21	20.51758	21.44238
2.260077	16	20.25098	21.21973
2.268102	18	19.97363	20.9668
2.276127	21	19.69922	20.69629
2.284152	28	19.57324	20.55566
2.292177	21	19.43359	20.38672
2.300202	21	19.26074	20.1748
2.308228	19	19.07227	19.93945
2.316253	16	18.88477	19.70117
2.324278	23	18.75781	19.52246
2.332303	11	18.61816	19.33105
2.340328	31	18.4502	19.11035
2.348354	16	18.26855	18.87695
2.356379	11	18.08691	18.64355
2.364404	24	17.91406	18.41895
2.372429	26	17.74121	18.19629
2.380455	23	17.56641	17.97363
2.38848	22	17.3916	17.75391
2.396505	23	17.20215	17.52539
2.40453	13	17.00781	17.29492
2.412555	16	16.81445	17.07129
2.42058	16	16.62402	16.85547
2.428606	22	16.42773	16.6377
2.436631	10	16.19141	16.38281
2.444656	16	15.93555	16.11133
2.452681	13	15.68262	15.84277
2.460706	13	15.68164	15.8291
2.468732	18	15.66895	15.80469
2.476757	15	15.65723	15.78418
2.484782	15	15.67969	15.80371
2.492807	18	15.70215	15.8291
2.500833	20	15.71387	15.85449
2.508858	12	15.7207	15.88965
2.516883	15	15.72363	15.9375
2.524908	19	15.72363	16.00488
2.532933	18	15.72266	16.09668
2.540958	22	15.71582	16.21094
2.548984	16	15.70703	16.35059
2.557009	23	15.69824	16.51953
2.565034	18	15.69531	16.71777
2.573059	8	15.69043	16.93066
2.581084	15	15.6748	17.13965
2.58911	17	15.6543	17.33789
2.597135	14	15.63281	17.51758
2.60516	22	15.62109	17.67383
2.613185	22	15.60645	17.78516
2.621211	22	15.58008	17.83496
2.629236	26	15.54785	17.8252
2.637261	14	15.5166	17.76367
2.645286	18	15.49609	17.67285
2.653311	15	15.47656	17.55176
2.661337	13	15.44336	17.40332
2.669362	27	15.4043	17.25195
2.677387	11	15.36621	17.11914
2.685412	14	15.3252	17.0166
2.693437	20	15.2793	16.94922
2.701463	17	15.2334	16.92383
2.709488	16	15.18457	16.93652
2.717513	14	15.13477	16.97949
2.725538	28	15.06445	17.02148
2.733563	17	14.9834	17.05859
2.741589	17	14.90332	17.08496
2.749614	16	14.8877	17.15137
2.757639	13	14.87305	17.18164
2.765664	28	14.83691	17.14844
2.77369	22	14.79199	17.05957
2.781715	20	14.7334	16.91309
2.78974	15	14.66699	16.72363
2.797765	18	14.59668	16.50488
2.80579	15	14.51953	16.26855
2.813815	18	14.43945	16.03613
2.821841	26	14.32813	15.79883
2.829866	10	14.20117	15.59375
2.837891	11	14.07617	15.46289
2.845916	13	14.12598	15.60645
2.853941	16	14.16602	15.86914
2.861967	13	14.15332	16.24219
2.869992	18	14.11523	16.7832
2.878017	20	14.07715	17.55078
2.886042	18	14.02148	18.55371
2.894068	20	13.9502	19.80859
2.902093	20	13.87891	21.33105
2.910118	23	13.8623	23.15527
2.918143	31	13.83887	25.17773
2.926168	25	13.79883	27.31738
2.934193	30	13.75195	29.48828
2.942219	33	13.69238	31.57227
2.950244	36	13.62695	33.4502
2.958269	38	13.55859	35.00293
2.966294	23	13.48926	36.12207
2.974319	34	13.41992	36.72363
2.982345	36	13.3418	36.75293
2.99037	33	13.26074	36.21094
2.998395	44	13.16797	35.12988
3.00642	45	13.06055	33.58789
3.014446	31	12.94531	31.7041
3.022471	25	12.82129	29.60938
3.030496	40	12.69336	27.45117
3.038521	30	12.56641	25.36621
3.046546	28	12.43945	23.47168
3.054571	23	12.30273	21.85059
3.062597	17	12.16699	20.57324
3.070622	22	12.24512	19.88477
3.078647	21	12.31348	19.55957
3.086672	8	12.33203	19.53125
3.094697	17	12.32715	19.77246
3.102723	19	12.32129	20.23926
3.110748	23	12.29102	20.83008
3.118773	13	12.24805	21.47266
3.126798	19	12.20508	22.10156
3.134824	28	12.17676	22.66309
3.142849	19	12.14648	23.09082
3.150874	30	12.10547	23.34668
3.158899	20	12.05273	23.43066
3.166924	24	11.99316	23.37207
3.17495	34	11.92676	23.23047
3.182975	28	11.8457	23.07324
3.191	27	11.75488	23.00684
3.199025	28	11.66113	23.14355
3.20705	26	11.56445	23.5957
3.215075	25	11.46875	24.46387
3.223101	26	11.36523	25.81641
3.231126	30	11.25781	27.70117
3.239151	27	11.15039	30.12207
3.247176	31	11.02246	33.01074
3.255202	32	10.88281	36.27344
3.263227	41	10.73828	39.76367
3.271252	58	10.5918	43.29199
3.279277	43	10.44629	46.63965
3.287302	48	10.39648	49.67188
3.295328	51	10.46582	52.19824
3.303353	65	10.52734	53.90918
3.311378	64	10.55273	54.65332
3.319403	59	10.55957	54.39453
3.327428	55	10.56055	53.16504
3.335454	39	10.55957	51.06055
3.343479	58	10.55176	48.22754
3.351504	47	10.52832	44.85352
3.359529	48	10.49805	41.16113
3.367554	29	10.45996	37.36328
3.37558	31	10.41797	33.65625
3.383605	17	10.36035	30.18359
3.39163	27	10.29492	27.0625
3.399655	21	10.22656	24.36035
3.407681	23	10.14355	22.08398
3.415706	21	10.05469	20.22461
3.423731	25	9.958008	18.7373
3.431756	19	9.856445	17.56543
3.439781	15	9.755859	16.65234
3.447806	20	9.649414	15.93359
3.455832	20	9.541016	15.36816
3.463857	13	9.432617	14.92773
3.471882	16	9.324219	14.60156
3.479907	13	9.182617	14.36328
3.487932	11	9.025391	14.26074
3.495958	8	8.861328	14.35742
3.503983	11	8.699219	14.74707
3.512008	23	8.764648	15.77637
3.520033	20	8.920898	17.47949
3.528059	26	9.0625	19.98047
3.536084	23	9.166992	23.56543
3.544109	32	9.25293	28.64551
3.552134	31	9.338867	35.72754
3.560159	43	9.408203	45.37598
3.568184	55	9.47168	58.25195
3.57621	65	9.529297	75.04688
3.584235	96	9.583984	96.42578
3.59226	109	9.637695	122.9482
3.600285	170	9.667969	154.9443
3.60831	168	9.685547	192.4668
3.616336	228	9.689453	235.1436
3.624361	283	9.685547	282.1221
3.632386	321	9.682617	332.0293
3.640411	367	9.682617	382.9863
3.648437	418	9.682617	432.6963
3.656462	500	9.666016	478.5938
3.664487	529	9.640625	518.0898
3.672512	569	9.616211	548.7832
3.680537	587	9.59082	568.7002
3.688563	568	9.560547	576.501
3.696588	567	9.508789	571.6221
3.704613	530	9.446289	554.375
3.712638	544	9.37793	525.8828
3.720663	471	9.298828	487.9492
3.728688	461	9.212891	442.8916
3.736714	394	9.12793	393.2959
3.744739	338	9.270508	341.9893
3.752764	289	9.410156	291.1426
3.760789	233	9.50293	242.748
3.768815	173	9.573242	198.377
3.77684	153	9.637695	159.0742
3.784865	131	9.673828	125.3359
3.79289	98	9.696289	97.25293
3.800915	66	9.71875	74.56836
3.808941	64	9.78125	56.80859
3.816966	45	9.841797	43.28223
3.824991	41	9.881836	33.27344
3.833016	27	9.912109	26.11914
3.841041	31	9.928711	21.20898
3.849066	18	9.9375	18.0459
3.857092	19	9.947266	16.24414
3.865117	17	9.946289	15.50586
3.873142	16	9.939453	15.64844
3.881167	30	9.919922	16.5625
3.889193	38	9.894531	18.21582
3.897218	32	9.869141	20.62305
3.905243	26	9.857422	23.8291
3.913268	38	9.839844	27.85352
3.921293	43	9.808594	32.70703
3.929319	44	9.765625	38.37695
3.937344	46	9.717773	44.7998
3.945369	53	9.646484	51.82422
3.953394	65	9.563477	59.25879
3.961419	80	9.480469	66.84082
3.969445	83	9.550781	74.39648
3.97747	67	9.606445	81.39551
3.985495	100	9.65332	87.47559
3.99352	99	9.695313	92.29297
4.001545	88	9.729492	95.55859
4.009571	117	9.751953	97.06543
4.017596	87	9.761719	96.71973
4.025621	99	9.764648	94.54883
4.033646	97	9.761719	90.69141
4.041671	97	9.755859	85.3877
4.049696	92	9.748047	78.95215
4.057722	74	9.739258	71.74512
4.065747	65	9.729492	64.13867
4.073772	55	9.71875	56.48438
4.081798	53	9.708008	49.09277
4.089823	55	9.682617	42.19434
4.097848	41	9.650391	35.9707
4.105873	32	9.618164	30.53125
4.113898	20	9.625	25.9502
4.121923	17	9.631836	22.16797
4.129949	29	9.630859	19.11816
4.137974	17	9.625977	16.71875
4.145999	21	9.619141	14.87109
4.154024	11	9.608398	13.47461
4.162049	12	9.588867	12.42871
4.170074	9	9.56543	11.65527
4.1781	10	9.536133	11.08105
4.186125	8	9.50293	10.65527
4.19415	11	9.470703	10.33691
4.202176	9	9.436523	10.09473
4.210201	15	9.398438	9.901367
4.218226	12	9.359375	9.746094
4.226251	17	9.320313	9.619141
4.234276	11	9.272461	9.505859
4.242301	10	9.22168	9.405273
4.250327	13	9.169922	9.319336
4.258352	13	9.117188	9.24707
4.266377	6	9.107422	9.232422
4.274402	12	9.072266	9.212891
4.282427	16	9.026367	9.205078
4.290453	8	8.961914	9.21582
4.298478	16	8.890625	9.270508
4.306503	14	8.814453	9.398438
4.314528	8	8.734375	9.636719
4.322554	10	8.652344	10.04102
4.330579	14	8.571289	10.68848
4.338604	18	8.676758	11.8623
4.346629	20	8.78125	13.50488
4.354654	9	8.842773	15.73242
4.362679	26	8.882813	18.75977
4.370705	23	8.922852	22.83008
4.37873	32	8.947266	28.17188
4.386755	23	8.961914	35.04395
4.39478	39	8.976563	43.69531
4.402806	33	9.022461	54.36133
4.410831	65	9.06543	67.13867
4.418856	89	9.098633	82.05371
4.426881	83	9.126953	99.01074
4.434906	131	9.145508	117.7471
4.442932	151	9.160156	137.8369
4.450957	168	9.163086	158.6758
4.458982	166	9.162109	179.5195
4.467007	194	9.158203	199.5117
4.475032	213	9.146484	217.7354
4.483057	264	9.132813	233.2979
4.491083	262	9.109375	245.3887
4.499108	282	9.078125	253.3711
4.507133	250	9.042969	256.834
4.515159	274	8.999023	255.6279
4.523184	264	8.951172	249.8936
4.531209	239	8.901367	240.0381
4.539234	220	8.851563	226.7002
4.547259	188	8.800781	210.6895
4.555285	192	8.771484	192.9316
4.56331	174	8.817383	174.4014
4.571335	148	8.863281	155.8877
4.57936	119	8.873047	138.0967
4.587385	127	8.863281	121.627
4.59541	112	8.84375	106.875
4.603436	81	8.819336	94.04883
4.611461	81	8.793945	83.18262
4.619486	92	8.78125	74.17188
4.627512	55	8.804688	66.82422
4.635537	70	8.822266	60.81445
4.643562	54	8.826172	55.83496
4.651587	54	8.823242	51.60156
4.659612	46	8.8125	47.86035
4.667637	43	8.798828	44.41406
4.675663	50	8.783203	41.12305
4.683688	42	8.760742	37.90332
4.691713	42	8.736328	34.72559
4.699738	29	8.705078	31.59473
4.707763	41	8.669922	28.55176
4.715788	27	8.634766	25.64941
4.723814	28	8.604492	22.94824
4.731839	25	8.569336	20.49219
4.739864	23	8.533203	18.32324
4.74789	20	8.496094	16.47656
4.755915	18	8.444336	14.95996
4.76394	22	8.386719	13.79395
4.771965	21	8.319336	12.9834
4.77999	9	8.248047	12.54102
4.788015	14	8.176758	12.48145
4.796041	18	8.129883	12.84082
4.804066	19	8.083008	13.6123
4.812091	15	8.011719	14.79102
4.820116	24	7.929688	16.40918
4.828141	21	7.84668	18.49414
4.836166	24	7.858398	21.1416
4.844192	30	7.865234	24.24023
4.852217	32	7.854492	27.74316
4.860242	37	7.835938	31.5957
4.868268	36	7.817383	35.71582
4.876293	45	7.786133	39.96777
4.884318	45	7.746094	44.20703
4.892343	52	7.701172	48.27051
4.900368	52	7.650391	51.98145
4.908393	51	7.597656	55.16797
4.916419	59	7.529297	57.65527
4.924444	67	7.452148	59.32227
4.932469	59	7.375977	60.08398
4.940494	43	7.335938	59.93359
4.948519	63	7.282227	58.8252
4.956544	64	7.204102	56.80566
4.96457	47	7.113281	53.98926
4.972595	57	7.022461	50.52734
4.98062	48	6.962891	46.61426
4.988646	56	6.883789	42.375
4.996671	31	6.771484	37.96973
5.004696	30	6.643555	33.57617
5.012721	26	6.516602	29.35059
5.020746	19	6.421875	25.43359
5.028771	24	6.327148	21.87402
5.036797	13	6.228516	18.71484
5.044822	17	6.128906	15.97754
5.052847	20	6.030273	13.66016
5.060872	17	6.089844	11.89453
5.068897	10	6.137695	10.47656
5.076922	10	6.163086	9.348633
5.084948	7	6.176758	8.476563
5.092973	16	6.191406	7.823242
5.100998	9	6.185547	7.328125
5.109024	12	6.165039	6.956055
5.117049	13	6.137695	6.686523
5.125074	13	6.099609	6.488281
5.133099	16	6.055664	6.345703
5.141124	6	5.975586	6.217773
5.149149	13	5.87793	6.110352
5.157175	12	5.78125	6.039063
5.1652	8	5.769531	6.083008
5.173225	15	5.734375	6.135742
5.18125	13	5.649414	6.170898
5.189275	10	5.539063	6.216797
5.1973	8	5.429688	6.303711
5.205326	15	5.34082	6.452148
5.213351	13	5.227539	6.624023
5.221376	10	5.084961	6.81543
5.229402	16	4.928711	7.046875
5.237427	15	4.775391	7.334961
5.245452	16	4.62793	7.686523
5.253477	9	4.477539	8.095703
5.261502	11	4.329102	8.570313
5.269527	13	4.236328	9.166992
5.277553	18	4.163086	9.854492
5.285578	12	4.253906	10.7832
5.293603	11	4.328125	11.77734
5.301628	17	4.388672	12.84473
5.309653	26	4.435547	13.99121
5.317679	17	4.476563	15.22168
5.325704	20	4.486328	16.50781
5.333729	18	4.482422	17.85156
5.341754	18	4.477539	19.24609
5.34978	12	4.458008	20.64551
5.357805	26	4.426758	22.01465
5.36583	19	4.354492	23.27637
5.373855	21	4.262695	24.39746
5.38188	20	4.171875	25.34668
5.389905	26	4.173828	26.16113
5.397931	35	4.154297	26.68164
5.405956	24	4.079102	26.83691
5.413981	23	3.977539	26.63379
5.422006	25	3.875977	26.09473
5.430032	18	3.74707	25.20215
5.438057	22	3.597656	23.99121
5.446082	23	3.435547	22.51172
5.454107	15	3.266602	20.82422
5.462132	24	3.097656	18.99512
5.470158	16	2.916016	17.07324
5.478183	23	2.731445	15.13281
5.486208	17	2.552734	13.23535
5.494233	11	2.503906	11.55273
5.502258	10	2.460938	9.998047
5.510283	9	2.563477	8.736328
5.518309	18	2.646484	7.617188
5.526334	15	2.730469	6.666016
5.534359	16	2.796875	5.861328
5.542385	16	2.853516	5.199219
5.55041	12	2.882813	4.648438
