SampleIdent               : oreas 45d
TimeMeasured              : 16/08/2017 12:45:57
Application               : <Omnian>
ConditionSet              : Omnian
Instrument                : Epsilon1
InstrumentSerial          : 672 (M-672)
TubeAnode                 : Ag 50
Detector                  : SDD5
kV                        : 50.000
mA                        : 0.100
uA                        : 100
Filter                    : Ag 100
Medium                    : Air
PeakingTimeNr             : 3
ZeroReference             : -0.006660745945
GainReference             : 0.008007249795
NoiseReference            : 0.071620985866
FanoReference             : 0.127556249499
ZeroInit                  : -0.006602666806
GainInit                  : 0.008007533848
NoiseInit                 : 0.073252178729
FanoInit                  : 0.128453314304
ZeroFit                   : -0.015001947992
GainFit                   : 0.008029389195
NoiseFit                  : 0.059155553579
FanoFit                   : 0.146488413215
NormFactor                : 1.001468539238
NormRefCounts             : 66115.265625000000
NormCurCounts             : 66018.312500000000
ROI-Fit (chan)            : 250
ROI-Fit (chan)            : 4094
Chi-square                : 1.853711009026
RefPressure               : 974.60
RefTemp                   : 29.300
MeasPressure              : 1004.95
MeasTemp                  : 30.900
Delta_hPa                 : 24.708984375000
HeliumFlow                : 0.00
LiveTime                  : 8.347465000000
TrueTime                  : 12.000493000000
FastChanLiveT             : 10.116043500000
FastChanDeadT             : 1.884449500000
DeadTime                  : 3.653028000000
DeadTimePct               : 30.441
FastChanCounts            : 916011
OutputCounts              : 771948
UnderflowCounts           : 0
OverflowCounts            : -13005
TotalCounts               : 784953
NrOfChannels              : 4096
Energy (keV)	Counts	Background	Fit
-1.500195E-02	0	0	0
-6.972559E-03	0	0	0
1.05683E-03	0	0	0
9.08622E-03	0	0	0
1.711561E-02	0	0	0
0.025145	0	0	0
3.317439E-02	0	0	0
4.120377E-02	0	0	0
4.923316E-02	0	0	0
5.726255E-02	0	0	0
6.529194E-02	0	0	0
7.332134E-02	0	0	0
8.135072E-02	0	0	0
8.938012E-02	0	0	0
0.0974095	0	0	0
0.1054389	0	0	0
0.1134683	0	0	0
0.1214977	0	0	0
0.1295271	0	0	0
0.1375564	0	0	0
0.1455858	0	0	0
0.1536152	0	0	0
0.1616446	0	0	0
0.169674	0	0	0
0.1777034	0	0	0
0.1857328	1	0	0
0.1937622	0	0	0
0.2017916	0	0	0
0.209821	0	0	0
0.2178503	0	0	0
0.2258797	0	0	0
0.2339091	0	0	0
0.2419385	0	0	0
0.2499679	0	0	0
0.2579973	0	0	0
0.2660267	0	0	0
0.2740561	0	0	0
0.2820854	0	0	0
0.2901148	0	0	0
0.2981442	0	0	0
0.3061736	0	0	0
0.314203	0	0	0
0.3222324	0	0	0
0.3302618	0	0	0
0.3382912	0	0	0
0.3463206	0	0	0
0.3543499	0	0	0
0.3623793	0	0	0
0.3704087	0	0	0
0.3784381	0	0	0
0.3864675	0	0	0
0.3944969	0	0	0
0.4025263	0	0	0
0.4105557	0	0	0
0.4185851	0	0	0
0.4266145	0	0	0
0.4346438	0	0	0
0.4426732	0	0	0
0.4507026	0	0	0
0.458732	0	0	0
0.4667614	0	0	0
0.4747908	0	0	0
0.4828202	0	0	0
0.4908496	0	0	0
0.498879	0	0	0
0.5069084	0	0	0
0.5149378	0	0	0
0.5229671	0	0	0
0.5309965	0	0	0
0.5390259	1	0	0
0.5470553	1	0	0
0.5550847	0	0	0
0.563114	0	0	0
0.5711434	0	0	0
0.5791728	0	0	0
0.5872023	0	0	0
0.5952317	1	0	0
0.603261	1	0	0
0.6112904	1	0	0
0.6193198	0	0	0
0.6273492	4	0	0
0.6353786	1	0	0
0.6434079	5	0	0
0.6514373	5	0	0
0.6594667	4	0	0
0.6674961	9	0	0
0.6755255	7	0	0
0.6835549	9	0	0
0.6915843	6	0	0
0.6996137	16	0	0
0.7076431	12	0	0
0.7156725	18	0	0
0.7237018	15	0	0
0.7317312	16	0	0
0.7397606	24	0	0
0.74779	24	0	0
0.7558194	16	0	0
0.7638488	24	0	0
0.7718782	24	0	0
0.7799076	24	0	0
0.787937	23	0	0
0.7959664	24	0	0
0.8039957	22	0	0
0.8120251	35	0	0
0.8200545	22	0	0
0.8280839	38	0	0
0.8361133	38	0	0
0.8441427	34	0	0
0.8521721	35	0	0
0.8602015	26	0	0
0.8682309	27	0	0
0.8762603	32	0	0
0.8842896	37	0	0
0.892319	39	0	0
0.9003484	29	0	0
0.9083778	24	0	0
0.9164072	37	0	0
0.9244366	33	0	0
0.932466	38	0	0
0.9404954	37	0	0
0.9485248	40	0	0
0.9565542	28	0	0
0.9645835	41	0	0
0.9726129	27	0	0
0.9806423	37	0	0
0.9886717	37	0	0
0.9967011	27	0	0
1.00473	19	0	0
1.01276	41	0	0
1.020789	39	0	0
1.028819	40	0	0
1.036848	32	0	0
1.044877	40	0	0
1.052907	26	0	0
1.060936	31	0	0
1.068966	41	0	0
1.076995	30	0	0
1.085024	41	0	0
1.093054	23	0	0
1.101083	29	0	0
1.109113	32	0	0
1.117142	39	0	0
1.125171	34	0	0
1.133201	28	0	0
1.14123	46	0	0
1.149259	43	0	0
1.157289	30	0	0
1.165318	28	0	0
1.173348	42	0	0
1.181377	34	0	0
1.189406	48	0	0
1.197436	39	0	0
1.205465	43	0	0
1.213495	34	0	0
1.221524	43	0	0
1.229553	30	0	0
1.237583	38	0	0
1.245612	36	0	0
1.253641	37	0	0
1.261671	30	0	0
1.2697	44	0	0
1.27773	39	0	0
1.285759	40	0	0
1.293788	47	0	0
1.301818	31	0	0
1.309847	27	0	0
1.317877	33	0	0
1.325906	32	0	0
1.333935	31	0	0
1.341965	34	0	0
1.349994	41	0	0
1.358024	36	0	0
1.366053	45	0	0
1.374082	36	0	0
1.382112	35	0	0
1.390141	36	0	0
1.398171	36	0	0
1.4062	34	0	0
1.414229	39	0	0
1.422259	37	0	0
1.430288	48	0	0
1.438318	41	0	0
1.446347	32	0	0
1.454376	42	0	0
1.462406	32	0	0
1.470435	24	0	0
1.478464	26	0	0
1.486494	40	0	0
1.494523	29	0	0
1.502553	33	0	0
1.510582	44	0	0
1.518611	41	0	0
1.526641	37	0	0
1.53467	40	0	0
1.5427	34	0	0
1.550729	29	0	0
1.558758	44	0	0
1.566788	38	0	0
1.574817	29	0	0
1.582847	49	0	0
1.590876	31	0	0
1.598905	35	0	0
1.606935	34	0	0
1.614964	27	0	0
1.622993	26	0	0
1.631023	35	0	0
1.639052	33	0	0
1.647082	41	0	0
1.655111	33	0	0
1.66314	48	0	0
1.67117	31	0	0
1.679199	43	0	0
1.687229	42	0	0
1.695258	44	0	0
1.703287	45	0	0
1.711317	63	0	0
1.719346	53	0	0
1.727376	37	0	0
1.735405	51	0	0
1.743434	51	0	0
1.751464	57	0	0
1.759493	41	0	0
1.767522	54	0	0
1.775552	35	0	0
1.783581	36	0	0
1.791611	29	0	0
1.79964	28	0	0
1.807669	29	0	0
1.815699	25	0	0
1.823728	27	0	0
1.831758	21	0	0
1.839787	23	0	0
1.847816	22	0	0
1.855846	17	0	0
1.863875	32	0	0
1.871904	26	0	0
1.879934	31	0	0
1.887963	26	0	0
1.895993	30	0	0
1.904022	40	0	0
1.912051	26	0	0
1.920081	17	0	0
1.92811	30	0	0
1.93614	30	0	0
1.944169	28	0	0
1.952198	28	0	0
1.960228	24	0	0
1.968257	27	0	0
1.976287	22	0	0
1.984316	24	0	0
1.992345	25	22.64063	23.8125
2.000375	22	22.2373	23.66992
2.008404	23	22.06055	23.77148
2.016433	21	21.87305	23.85938
2.024463	32	21.68652	23.92383
2.032492	29	21.51172	23.95215
2.040522	19	21.32715	23.90332
2.048551	15	21.14258	23.77539
2.056581	28	20.98242	23.58789
2.06461	18	20.8125	23.31055
2.072639	38	20.62207	22.94531
2.080669	25	20.4209	22.52148
2.088698	22	20.22168	22.07031
2.096727	21	20.07129	21.66211
2.104757	22	19.92188	21.26465
2.112786	23	19.75195	20.86719
2.120816	18	19.57227	20.48828
2.128845	21	19.38867	20.13574
2.136874	16	19.20313	19.80957
2.144904	18	19.01758	19.50879
2.152933	18	18.81934	19.21875
2.160963	21	18.61621	18.94238
2.168992	23	18.39551	18.66504
2.177021	19	18.16602	18.39355
2.185051	20	17.93848	18.13867
2.19308	20	17.98438	18.16992
2.201109	19	18.01074	18.19727
2.209139	13	17.99414	18.19629
2.217168	18	17.95801	18.18848
2.225198	12	17.9209	18.19434
2.233227	25	17.88672	18.21387
2.241256	17	17.85156	18.24316
2.249286	16	17.79883	18.25977
2.257315	23	17.7373	18.26758
2.265345	25	17.6709	18.2666
2.273374	17	17.60156	18.25293
2.281403	18	17.53223	18.22559
2.289433	21	17.50684	18.22266
2.297462	17	17.47168	18.19336
2.305491	18	17.43652	18.14551
2.313521	14	17.39844	18.08105
2.32155	21	17.35742	18.00293
2.32958	21	17.30957	17.91309
2.337609	13	17.25879	17.82031
2.345639	14	17.20703	17.73145
2.353668	17	17.1543	17.64746
2.361697	20	17.09863	17.56738
2.369727	23	17.04395	17.49414
2.377756	14	16.98828	17.42578
2.385785	18	16.93359	17.35742
2.393815	21	16.87891	17.28711
2.401844	19	16.82129	17.21094
2.409873	12	16.76074	17.12793
2.417903	19	16.69922	17.03711
2.425932	21	16.63477	16.94141
2.433962	10	16.57129	16.84375
2.441991	23	16.50195	16.74023
2.450021	14	16.42969	16.63672
2.45805	18	16.35449	16.53223
2.466079	15	16.27832	16.43066
2.474109	17	16.20117	16.33301
2.482138	23	16.14648	16.2627
2.490167	18	16.0918	16.19727
2.498197	22	16.02637	16.12598
2.506226	17	15.95313	16.0498
2.514256	16	15.87402	15.97363
2.522285	14	15.78809	15.89648
2.530314	19	15.69727	15.82227
2.538344	7	15.60742	15.75586
2.546373	15	15.61426	15.79688
2.554403	12	15.6123	15.83984
2.562432	14	15.59375	15.87793
2.570461	15	15.56738	15.91895
2.578491	17	15.54199	15.96875
2.58652	18	15.52637	16.03613
2.59455	14	15.50293	16.09766
2.602579	20	15.47949	16.15527
2.610608	16	15.45605	16.20508
2.618638	21	15.42871	16.23828
2.626667	15	15.39063	16.24805
2.634696	16	15.34863	16.2373
2.642726	15	15.30664	16.21484
2.650755	23	15.28906	16.21094
2.658785	13	15.26563	16.20215
2.666814	11	15.22754	16.18848
2.674844	23	15.18066	16.18652
2.682873	13	15.13477	16.21289
2.690902	19	15.12988	16.3125
2.698932	13	15.11914	16.43945
2.706961	13	15.09766	16.58594
2.71499	17	15.07227	16.74902
2.72302	16	15.04688	16.9209
2.731049	16	15.03418	17.09863
2.739079	11	15.01953	17.25098
2.747108	17	14.99805	17.35742
2.755137	23	14.97363	17.4082
2.763167	15	14.94629	17.39844
2.771196	20	14.91211	17.32129
2.779226	18	14.875	17.18359
2.787255	19	14.83789	16.99707
2.795284	23	14.81738	16.79102
2.803314	13	14.79492	16.56445
2.811343	12	14.75781	16.32324
2.819372	9	14.71387	16.09375
2.827402	14	14.66992	15.9043
2.835431	14	14.66797	15.82031
2.843461	12	14.66406	15.82129
2.85149	14	14.64844	15.92383
2.859519	18	14.62598	16.16602
2.867549	15	14.60352	16.58984
2.875578	18	14.58398	17.23438
2.883608	27	14.56543	18.13281
2.891637	16	14.54102	19.30859
2.899666	22	14.51465	20.78223
2.907696	14	14.48242	22.54883
2.915725	22	14.44727	24.58398
2.923754	30	14.41113	26.83398
2.931784	32	14.39941	29.23145
2.939813	36	14.38574	31.63379
2.947843	30	14.37012	33.90332
2.955872	33	14.34863	35.88574
2.963902	42	14.32422	37.44336
2.971931	43	14.29785	38.45801
2.97996	38	14.27051	38.85156
2.98799	35	14.24414	38.59277
2.996019	40	14.22168	37.70996
3.004048	35	14.2002	36.27539
3.012078	33	14.1748	34.40527
3.020107	43	14.14844	32.25195
3.028136	23	14.12207	29.97949
3.036166	38	14.10254	27.75781
3.044195	28	14.08203	25.72266
3.052225	28	14.05859	23.98828
3.060254	23	14.0332	22.63574
3.068284	29	14.00391	21.70605
3.076313	17	13.97168	21.20801
3.084342	17	13.93945	21.11621
3.092372	30	13.92773	21.39844
3.100401	24	13.91504	21.9541
3.10843	8	13.89355	22.68652
3.11646	19	13.86719	23.49902
3.124489	27	13.83789	24.29785
3.132519	31	13.80176	24.98926
3.140548	33	13.7627	25.50391
3.148577	29	13.72363	25.7959
3.156607	28	13.70801	25.86621
3.164636	20	13.69238	25.69824
3.172666	29	13.67578	25.3291
3.180695	24	13.6582	24.81934
3.188724	30	13.63281	24.24316
3.196754	17	13.60352	23.69922
3.204783	18	13.57129	23.28223
3.212812	22	13.53613	23.08301
3.220842	24	13.5	23.17773
3.228871	25	13.45996	23.61426
3.236901	22	13.41699	24.4209
3.24493	38	13.375	25.58984
3.252959	32	13.37012	27.11328
3.260989	35	13.3623	28.87402
3.269018	31	13.34961	30.76172
3.277048	35	13.32813	32.6416
3.285077	34	13.30273	34.37891
3.293106	30	13.27246	35.83301
3.301136	43	13.24023	36.88281
3.309165	43	13.20801	37.43555
3.317194	37	13.20215	37.46094
3.325224	31	13.19531	36.91895
3.333253	29	13.18066	35.83398
3.341283	40	13.15918	34.2793
3.349312	29	13.13477	32.35938
3.357342	25	13.10547	30.19238
3.365371	28	13.07324	27.90527
3.3734	33	13.04102	25.61914
3.38143	25	13.00879	23.43457
3.389459	24	12.97559	21.42969
3.397488	25	12.94238	19.65918
3.405518	17	12.91016	18.15039
3.413547	27	12.88965	16.92188
3.421577	14	12.86426	15.94531
3.429606	8	12.83203	15.19727
3.437635	9	12.79297	14.64746
3.445665	12	12.75	14.27051
3.453694	17	12.7002	14.03027
3.461724	18	12.64746	13.90332
3.469753	14	12.59473	13.86914
3.477782	14	12.60254	13.96973
3.485812	9	12.60449	14.12012
3.493841	20	12.60059	14.30957
3.501871	11	12.58398	14.52051
3.5099	16	12.55957	14.75195
3.517929	14	12.53125	15.00195
3.525959	24	12.50195	15.26953
3.533988	11	12.47168	15.55371
3.542017	12	12.46582	15.87891
3.550047	16	12.45996	16.22461
3.558076	14	12.44824	16.58789
3.566106	12	12.43164	16.98047
3.574135	12	12.40918	17.41016
3.582165	16	12.38281	17.89453
3.590194	13	12.35547	18.45117
3.598223	24	12.32422	19.09082
3.606253	27	12.28906	19.82617
3.614282	19	12.24902	20.6582
3.622311	24	12.20605	21.58105
3.630341	26	12.16309	22.58008
3.63837	21	12.14551	23.64453
3.646399	18	12.12012	24.69434
3.654429	33	12.08887	25.6709
3.662458	25	12.04785	26.50684
3.670488	28	12.00098	27.13965
3.678517	24	11.94434	27.50977
3.686547	29	11.88281	27.57813
3.694576	29	11.82227	27.3291
3.702605	31	11.84082	26.8418
3.710635	30	11.85059	26.0498
3.718664	26	11.85156	24.99805
3.726693	21	11.83594	23.73828
3.734723	29	11.81152	22.34766
3.742752	21	11.78125	20.89746
3.750782	12	11.74805	19.45801
3.758811	13	11.71484	18.08887
3.76684	15	11.71777	16.86719
3.77487	12	11.7168	15.78516
3.782899	12	11.70801	14.84961
3.790929	15	11.69336	14.06641
3.798958	10	11.67285	13.4248
3.806987	14	11.64844	12.91406
3.815017	16	11.62207	12.51758
3.823046	16	11.58887	12.21191
3.831075	10	11.55371	11.97949
3.839105	10	11.51367	11.80371
3.847134	10	11.4707	11.6709
3.855164	10	11.42773	11.57422
3.863193	13	11.41406	11.53516
3.871222	11	11.3916	11.50879
3.879252	19	11.3584	11.49316
3.887281	13	11.31543	11.48633
3.895311	8	11.26758	11.49316
3.90334	18	11.20508	11.50586
3.911369	16	11.13574	11.53516
3.919399	10	11.06641	11.58691
3.927428	12	11.09668	11.76172
3.935457	13	11.11816	11.95117
3.943487	14	11.12012	12.13867
3.951516	14	11.11035	12.33105
3.959546	15	11.10156	12.53125
3.967575	12	11.09375	12.73242
3.975605	11	11.07813	12.91699
3.983634	15	11.0625	13.08203
3.991663	23	11.05273	13.22363
3.999693	17	11.04395	13.32813
4.007722	21	11.02734	13.38184
4.015751	16	11.00781	13.38574
4.023781	10	10.98242	13.33691
4.03181	17	10.95313	13.24023
4.03984	20	10.92383	13.10645
4.047869	14	10.89551	12.94238
4.055898	15	10.86133	12.75195
4.063928	10	10.81641	12.53906
4.071957	6	10.76465	12.31738
4.079987	16	10.71387	12.10156
4.088016	11	10.70117	11.93457
4.096045	9	10.6748	11.76855
4.104074	12	10.64453	11.61426
4.112104	21	10.60156	11.46582
4.120133	7	10.55273	11.32715
4.128163	12	10.48633	11.18359
4.136192	14	10.41113	11.04199
4.144222	8	10.33594	10.90918
4.152251	8	10.37012	10.89258
4.16028	12	10.39258	10.86719
4.16831	11	10.39063	10.81934
4.176339	11	10.37598	10.76074
4.184369	11	10.3623	10.7041
4.192398	14	10.37012	10.67188
4.200428	8	10.37012	10.63281
4.208457	7	10.36816	10.59277
4.216486	14	10.35742	10.54785
4.224515	17	10.34277	10.50293
4.232545	6	10.32031	10.45215
4.240574	15	10.29395	10.40332
4.248604	14	10.26758	10.3584
4.256633	19	10.25098	10.3291
4.264662	11	10.23145	10.30566
4.272692	17	10.2002	10.28223
4.280721	18	10.16211	10.27051
4.288751	12	10.12207	10.2832
4.29678	10	10.0791	10.33398
4.30481	12	10.0332	10.44824
4.312839	11	9.977539	10.6543
4.320868	11	9.917969	11.00586
4.328897	18	9.857422	11.58105
4.336927	13	9.821289	12.49902
4.344956	17	9.777344	13.85938
4.352986	23	9.710938	15.80859
4.361015	14	9.632813	18.56055
4.369045	25	9.555664	22.36523
4.377074	33	9.583008	27.5957
4.385103	34	9.591797	34.41211
4.393133	37	9.578125	43.09473
4.401162	50	9.551758	53.90527
4.409192	67	9.526367	67.04395
4.417221	94	9.527344	82.62109
4.42525	106	9.519531	100.5498
4.43328	101	9.5	120.5986
4.441309	124	9.462891	142.3438
4.449338	144	9.416016	165.1787
4.457368	204	9.361328	188.3066
4.465397	214	9.301758	210.7959
4.473427	242	9.243164	231.6348
4.481456	258	9.227539	249.8506
4.489485	287	9.208008	264.4688
4.497515	272	9.174805	274.7285
4.505544	294	9.136719	280.1377
4.513574	247	9.092773	280.501
4.521603	284	9.042969	275.9492
4.529633	245	8.990234	266.9375
4.537662	281	8.931641	254.1865
4.545691	212	8.871094	238.6279
4.55372	260	8.811523	221.3027
4.56175	187	8.754883	203.2695
4.569779	164	8.698242	185.4971
4.577809	189	8.634766	168.793
4.585838	173	8.560547	153.7549
4.593867	153	8.486328	140.75
4.601897	131	8.483398	129.9609
4.609926	122	8.461914	121.1943
4.617956	129	8.420898	114.168
4.625985	112	8.369141	108.4951
4.634015	107	8.318359	103.7324
4.642044	108	8.327148	99.48926
4.650073	95	8.31543	95.28711
4.658103	98	8.294922	90.8252
4.666132	108	8.240234	85.87598
4.674161	96	8.167969	80.36816
4.682191	90	8.088867	74.32422
4.69022	72	8.005859	67.84961
4.698249	55	7.922852	61.1123
4.706279	49	7.913086	54.38086
4.714308	60	7.896484	47.7793
4.722338	44	7.875977	41.50098
4.730367	43	7.833984	35.68945
4.738397	38	7.78125	30.47559
4.746426	44	7.722656	25.94531
4.754455	24	7.650391	22.13184
4.762485	32	7.568359	19.04785
4.770514	16	7.480469	16.68652
4.778543	21	7.383789	15.01953
4.786573	17	7.28418	14.02344
4.794602	26	7.18457	13.67773
4.802631	23	7.169922	14.0498
4.810661	25	7.138672	15.03027
4.81869	31	7.103516	16.63086
4.82672	36	7.051758	18.83691
4.834749	31	6.991211	21.65332
4.842779	33	6.918945	25.05859
4.850808	40	6.841797	29.01953
4.858837	40	6.763672	33.47363
4.866867	37	6.786133	38.41797
4.874896	35	6.78125	43.58496
4.882926	53	6.760742	48.81543
4.890955	71	6.702148	53.88379
4.898984	60	6.625	58.59277
4.907013	65	6.538086	62.72949
4.915043	71	6.446289	66.09375
4.923072	70	6.356445	68.51074
4.931102	55	6.34668	69.92773
4.939131	64	6.333984	70.18359
4.947161	55	6.318359	69.26172
4.95519	76	6.272461	67.18848
4.963219	65	6.211914	64.08691
4.971249	53	6.142578	60.12305
4.979278	49	6.057617	55.48535
4.987308	47	5.956055	50.3877
4.995337	49	5.845703	45.05664
5.003366	30	5.727539	39.69922
5.011395	35	5.604492	34.5
5.019425	35	5.483398	29.61328
5.027454	33	5.486328	25.26855
5.035484	17	5.470703	21.39355
5.043513	24	5.432617	18.01563
5.051543	21	5.37793	15.14063
5.059572	20	5.314453	12.75098
5.067601	13	5.235352	10.79883
5.075631	13	5.149414	9.237305
5.08366	18	5.064453	8.016602
5.09169	17	5.09375	7.192383
5.099719	9	5.091797	6.564453
5.107749	16	5.073242	6.101563
5.115778	20	5.013672	5.738281
5.123807	18	4.93457	5.46582
5.131836	15	4.84668	5.271484
5.139866	13	4.753906	5.142578
5.147895	14	4.662109	5.077148
5.155925	17	4.657227	5.15625
5.163954	15	4.651367	5.291992
5.171983	20	4.636719	5.483398
5.180013	17	4.587891	5.711914
5.188042	10	4.523438	6.004883
5.196072	12	4.448242	6.37793
5.204101	18	4.362305	6.845703
5.212131	16	4.255859	7.408203
5.22016	11	4.138672	8.087891
5.228189	15	4.016602	8.90332
5.236218	11	3.892578	9.871094
5.244248	22	3.770508	11.00977
5.252277	26	3.771484	12.4541
5.260307	15	3.75293	14.08301
5.268336	16	3.716797	15.91797
5.276366	25	3.667969	17.98828
5.284395	21	3.612305	20.33008
5.292424	24	3.540039	22.95801
5.300454	36	3.460938	25.90723
5.308483	26	3.381836	29.2002
5.316513	30	3.413086	32.95117
5.324542	49	3.413086	37
5.332571	42	3.396484	41.32031
5.3406	53	3.34082	45.81934
5.34863	43	3.267578	50.41309
5.356659	65	3.185547	54.97852
5.364689	61	3.099609	59.36133
5.372718	63	3.014648	63.38867
5.380748	58	3.017578	66.96387
5.388777	68	3.015625	69.81543
5.396806	66	3.00293	71.78516
5.404836	49	2.957031	72.72559
5.412865	64	2.893555	72.58008
5.420895	68	2.819336	71.33301
5.428924	63	2.740234	69.02344
5.436954	55	2.643555	65.73047
5.444983	61	2.540039	61.59766
5.453012	49	2.433594	56.80371
5.461041	54	2.328125	51.54492
5.469071	42	2.224609	46.02832
5.4771	54	2.220703	40.54883
5.48513	38	2.201172	35.16992
5.493159	35	2.169922	30.0459
5.501188	30	2.129883	25.29785
5.509218	21	2.085938	21.01172
5.517247	18	2.02832	17.22461
5.525277	22	1.963867	13.95801
5.533306	16	1.901367	11.20508
5.541336	23	1.926758	9.020508
5.549365	20	1.927734	7.243164
5.557394	13	1.916016	5.832031
5.565423	16	1.871094	4.707031
