SampleIdent               : oreas 22d
TimeMeasured              : 16/08/2017 12:11:47
Application               : <Omnian>
ConditionSet              : Omnian
Instrument                : Epsilon1
InstrumentSerial          : 672 (M-672)
TubeAnode                 : Ag 50
Detector                  : SDD5
kV                        : 50.000
mA                        : 0.100
uA                        : 100
Filter                    : Ag 100
Medium                    : Air
PeakingTimeNr             : 3
ZeroReference             : -0.006660745945
GainReference             : 0.008007249795
NoiseReference            : 0.071620985866
FanoReference             : 0.127556249499
ZeroInit                  : -0.006602666806
GainInit                  : 0.008007533848
NoiseInit                 : 0.073252178729
FanoInit                  : 0.128453314304
ZeroFit                   : -0.008233567700
GainFit                   : 0.008023067378
NoiseFit                  : 0.079692393541
FanoFit                   : 0.124140836298
NormFactor                : 1.001468539238
NormRefCounts             : 66115.265625000000
NormCurCounts             : 66018.312500000000
ROI-Fit (chan)            : 250
ROI-Fit (chan)            : 4094
Chi-square                : 0.688712537289
RefPressure               : 974.60
RefTemp                   : 29.300
MeasPressure              : 1005.21
MeasTemp                  : 31.200
Delta_hPa                 : 23.986288070679
HeliumFlow                : 0.00
LiveTime                  : 8.448564800000
TrueTime                  : 12.000494000000
FastChanLiveT             : 9.648475500000
FastChanDeadT             : 2.352018500000
DeadTime                  : 3.551929200000
DeadTimePct               : 29.598
FastChanCounts            : 574426
OutputCounts              : 493236
UnderflowCounts           : 0
OverflowCounts            : -23156
TotalCounts               : 516392
NrOfChannels              : 4096
Energy (keV)	Counts	Background	Fit
-8.233568E-03	0	0	0
-2.105003E-04	0	0	0
7.812567E-03	0	0	0
1.583564E-02	0	0	0
0.0238587	0	0	0
3.188177E-02	0	0	0
3.990484E-02	0	0	0
0.0479279	0	0	0
5.595097E-02	0	0	0
6.397404E-02	0	0	0
7.199711E-02	0	0	0
8.002017E-02	0	0	0
8.804324E-02	0	0	0
9.606631E-02	0	0	0
0.1040894	0	0	0
0.1121124	0	0	0
0.1201355	0	0	0
0.1281586	0	0	0
0.1361817	0	0	0
0.1442047	0	0	0
0.1522278	0	0	0
0.1602508	0	0	0
0.1682739	0	0	0
0.176297	0	0	0
0.18432	0	0	0
0.1923431	0	0	0
0.2003662	0	0	0
0.2083893	0	0	0
0.2164123	0	0	0
0.2244354	0	0	0
0.2324585	0	0	0
0.2404815	0	0	0
0.2485046	0	0	0
0.2565277	0	0	0
0.2645507	0	0	0
0.2725738	0	0	0
0.2805969	0	0	0
0.2886199	0	0	0
0.296643	0	0	0
0.3046661	0	0	0
0.3126891	0	0	0
0.3207122	0	0	0
0.3287353	0	0	0
0.3367583	0	0	0
0.3447814	0	0	0
0.3528045	0	0	0
0.3608275	0	0	0
0.3688506	0	0	0
0.3768737	0	0	0
0.3848967	0	0	0
0.3929198	0	0	0
0.4009429	0	0	0
0.4089659	0	0	0
0.416989	0	0	0
0.4250121	0	0	0
0.4330351	0	0	0
0.4410582	0	0	0
0.4490813	0	0	0
0.4571043	0	0	0
0.4651274	0	0	0
0.4731505	0	0	0
0.4811735	0	0	0
0.4891966	0	0	0
0.4972197	0	0	0
0.5052428	0	0	0
0.5132658	1	0	0
0.5212889	0	0	0
0.529312	0	0	0
0.537335	0	0	0
0.5453581	0	0	0
0.5533811	1	0	0
0.5614042	1	0	0
0.5694273	0	0	0
0.5774503	0	0	0
0.5854734	2	0	0
0.5934965	1	0	0
0.6015195	1	0	0
0.6095426	0	0	0
0.6175657	2	0	0
0.6255888	2	0	0
0.6336118	0	0	0
0.6416349	1	0	0
0.649658	3	0	0
0.657681	6	0	0
0.6657041	10	0	0
0.6737272	4	0	0
0.6817502	5	0	0
0.6897733	7	0	0
0.6977963	5	0	0
0.7058194	8	0	0
0.7138425	9	0	0
0.7218655	8	0	0
0.7298886	10	0	0
0.7379117	17	0	0
0.7459348	21	0	0
0.7539578	24	0	0
0.7619809	20	0	0
0.770004	32	0	0
0.7780271	34	0	0
0.7860501	35	0	0
0.7940732	31	0	0
0.8020962	29	0	0
0.8101193	44	0	0
0.8181424	32	0	0
0.8261654	47	0	0
0.8341885	37	0	0
0.8422116	31	0	0
0.8502346	50	0	0
0.8582577	51	0	0
0.8662808	64	0	0
0.8743038	59	0	0
0.8823269	58	0	0
0.89035	44	0	0
0.8983731	66	0	0
0.9063961	62	0	0
0.9144192	64	0	0
0.9224423	58	0	0
0.9304653	58	0	0
0.9384884	73	0	0
0.9465114	61	0	0
0.9545345	54	0	0
0.9625576	60	0	0
0.9705806	69	0	0
0.9786037	68	0	0
0.9866268	70	0	0
0.9946498	60	0	0
1.002673	66	0	0
1.010696	60	0	0
1.018719	53	0	0
1.026742	65	0	0
1.034765	47	0	0
1.042788	66	0	0
1.050811	73	0	0
1.058834	68	0	0
1.066857	56	0	0
1.07488	61	0	0
1.082904	77	0	0
1.090927	68	0	0
1.09895	73	0	0
1.106973	55	0	0
1.114996	68	0	0
1.123019	61	0	0
1.131042	67	0	0
1.139065	67	0	0
1.147088	59	0	0
1.155111	72	0	0
1.163134	50	0	0
1.171157	62	0	0
1.17918	62	0	0
1.187204	60	0	0
1.195227	56	0	0
1.20325	74	0	0
1.211273	55	0	0
1.219296	64	0	0
1.227319	67	0	0
1.235342	60	0	0
1.243365	54	0	0
1.251388	62	0	0
1.259411	76	0	0
1.267434	61	0	0
1.275457	79	0	0
1.28348	63	0	0
1.291503	61	0	0
1.299526	65	0	0
1.307549	60	0	0
1.315573	67	0	0
1.323596	73	0	0
1.331619	58	0	0
1.339642	64	0	0
1.347665	62	0	0
1.355688	59	0	0
1.363711	74	0	0
1.371734	57	0	0
1.379757	57	0	0
1.38778	54	0	0
1.395803	57	0	0
1.403826	60	0	0
1.411849	72	0	0
1.419872	60	0	0
1.427896	54	0	0
1.435919	69	0	0
1.443942	60	0	0
1.451965	58	0	0
1.459988	67	0	0
1.468011	53	0	0
1.476034	75	0	0
1.484057	58	0	0
1.49208	61	0	0
1.500103	57	0	0
1.508126	66	0	0
1.516149	54	0	0
1.524172	62	0	0
1.532195	50	0	0
1.540218	64	0	0
1.548241	60	0	0
1.556265	61	0	0
1.564288	57	0	0
1.572311	64	0	0
1.580334	42	0	0
1.588357	52	0	0
1.59638	43	0	0
1.604403	56	0	0
1.612426	51	0	0
1.620449	42	0	0
1.628472	55	0	0
1.636495	60	0	0
1.644518	59	0	0
1.652541	55	0	0
1.660564	74	0	0
1.668588	58	0	0
1.676611	63	0	0
1.684634	73	0	0
1.692657	84	0	0
1.70068	79	0	0
1.708703	102	0	0
1.716726	89	0	0
1.724749	94	0	0
1.732772	88	0	0
1.740795	104	0	0
1.748818	98	0	0
1.756841	93	0	0
1.764864	91	0	0
1.772887	62	0	0
1.78091	92	0	0
1.788934	63	0	0
1.796957	80	0	0
1.80498	49	0	0
1.813003	56	0	0
1.821026	68	0	0
1.829049	52	0	0
1.837072	46	0	0
1.845095	42	0	0
1.853118	46	0	0
1.861141	63	0	0
1.869164	49	0	0
1.877187	48	0	0
1.88521	39	0	0
1.893233	45	0	0
1.901256	34	0	0
1.90928	44	0	0
1.917303	48	0	0
1.925326	29	0	0
1.933349	52	0	0
1.941372	33	0	0
1.949395	37	0	0
1.957418	36	0	0
1.965441	44	0	0
1.973464	36	0	0
1.981487	42	0	0
1.98951	38	0	0
1.997533	30	34.49316	35.48145
2.005556	30	33.90137	34.8457
2.013579	41	33.31445	34.24316
2.021602	41	32.73242	33.66016
2.029626	28	32.15527	33.08984
2.037649	31	31.90039	32.83887
2.045672	26	31.64551	32.58398
2.053695	32	31.39258	32.32031
2.061718	28	31.13965	32.0498
2.069741	28	30.96875	31.85156
2.077764	34	30.78516	31.63574
2.085787	32	30.58496	31.39941
2.09381	31	30.37695	31.1543
2.101833	28	30.16895	30.9082
2.109856	29	29.96387	30.66602
2.117879	35	29.75488	30.4209
2.125902	37	29.54688	30.17676
2.133925	33	29.33496	29.92773
2.141948	40	29.11816	29.67383
2.149971	25	28.89453	29.41211
2.157995	30	28.66797	29.14844
2.166018	41	28.44238	28.88672
2.174041	35	28.24316	28.6543
2.182064	29	28.04004	28.42285
2.190087	27	27.81836	28.17969
2.19811	32	27.58789	27.9375
2.206133	31	27.3584	27.70605
2.214156	24	27.18359	27.54297
2.222179	27	27.00488	27.39063
2.230202	30	26.82031	27.24805
2.238225	23	26.63281	27.11914
2.246248	39	26.43945	27
2.254272	28	26.24512	26.8916
2.262295	27	26.04883	26.79297
2.270318	36	25.85352	26.69824
2.278341	23	25.65332	26.59863
2.286364	26	25.45215	26.48926
2.294387	30	25.25098	26.36328
2.30241	15	25.0498	26.21777
2.310433	29	24.83984	26.03613
2.318456	26	24.625	25.82227
2.326479	23	24.4082	25.57813
2.334502	32	24.19141	25.30859
2.342525	27	23.97559	25.01758
2.350548	26	23.82129	24.77246
2.358571	25	23.66992	24.52051
2.366594	21	23.51758	24.26563
2.374617	23	23.36328	24.01074
2.382641	17	23.20508	23.75977
2.390664	21	23.02539	23.49805
2.398687	27	22.83496	23.23926
2.40671	30	22.63965	22.9873
2.414733	10	22.44141	22.74609
2.422756	22	22.24316	22.51563
2.430779	37	22.03125	22.2793
2.438802	30	21.80469	22.03613
2.446825	28	21.58008	21.79785
2.454848	30	21.46973	21.67773
2.462871	28	21.35156	21.55273
2.470894	15	21.2207	21.41895
2.478917	32	21.08398	21.2832
2.48694	21	20.91602	21.12598
2.494963	22	20.73438	20.96582
2.502986	15	20.5459	20.81641
2.51101	26	20.35449	20.68652
2.519033	13	20.16309	20.58691
2.527056	18	19.93945	20.48633
2.535079	13	19.69336	20.4043
2.543102	20	19.4502	20.36328
2.551125	17	19.51465	20.6709
2.559148	30	19.57129	21.00684
2.567171	31	19.60938	21.35156
2.575194	17	19.61719	21.67871
2.583217	14	19.61035	21.98828
2.59124	25	19.58789	22.2627
2.599263	17	19.55762	22.4873
2.607286	22	19.52832	22.6543
2.615309	33	19.52344	22.77148
2.623333	18	19.51855	22.80469
2.631356	22	19.49609	22.73438
2.639379	29	19.46484	22.57227
2.647402	20	19.4209	22.32422
2.655425	24	19.37012	22.01465
2.663448	25	19.32031	21.66602
2.671471	20	19.27246	21.30176
2.679494	22	19.2168	20.92969
2.687517	23	19.14746	20.56152
2.69554	17	19.07129	20.21582
2.703563	25	18.99512	19.9082
2.711586	23	18.9541	19.67773
2.719609	20	18.90527	19.4834
2.727633	12	18.84082	19.31445
2.735656	25	18.75977	19.16406
2.743679	27	18.6709	19.03711
2.751702	16	18.56543	18.91895
2.759725	18	18.45313	18.8125
2.767748	16	18.3418	18.71875
2.775771	22	18.37402	18.77637
2.783794	15	18.39355	18.82617
2.791817	15	18.4043	18.86621
2.79984	21	18.39453	18.88672
2.807863	25	18.37598	18.89844
2.815886	27	18.35059	18.90723
2.823909	24	18.32129	18.92383
2.831932	23	18.29297	18.95996
2.839955	22	18.27246	19.03711
2.847978	23	18.25195	19.16211
2.856001	17	18.22168	19.3457
2.864025	20	18.18848	19.6123
2.872048	29	18.14746	19.97852
2.880071	20	18.10352	20.4668
2.888094	19	18.05957	21.09277
2.896117	23	18.02148	21.86914
2.90414	30	17.97949	22.78125
2.912163	25	17.92871	23.80762
2.920186	24	17.87305	24.9248
2.928209	24	17.81738	26.09082
2.936232	22	17.75781	27.24707
2.944255	32	17.69336	28.32813
2.952278	26	17.62891	29.27148
2.960301	25	17.56641	30.0166
2.968324	32	17.49805	30.50098
2.976347	25	17.41992	30.68359
2.98437	30	17.33691	30.55078
2.992394	34	17.25391	30.11426
3.000417	48	17.24414	29.47656
3.00844	20	17.23242	28.61035
3.016463	31	17.21387	27.5752
3.024486	37	17.19336	26.44824
3.032509	30	17.16992	25.30469
3.040532	26	17.1416	24.21191
3.048555	24	17.10938	23.23047
3.056578	23	17.07617	22.41016
3.064601	13	17.04199	21.77832
3.072624	16	17.00781	21.35059
3.080647	24	16.96973	21.11816
3.08867	28	16.93066	21.06543
3.096694	21	16.88867	21.1582
3.104717	22	16.84375	21.36035
3.11274	15	16.7998	21.62891
3.120763	24	16.75391	21.91895
3.128786	19	16.70605	22.18359
3.136809	23	16.65625	22.38477
3.144832	31	16.60156	22.49121
3.152855	27	16.5459	22.48438
3.160878	14	16.48242	22.35059
3.168901	21	16.41602	22.09473
3.176924	18	16.34961	21.73242
3.184947	30	16.31836	21.31836
3.19297	23	16.28418	20.83789
3.200993	18	16.23633	20.30664
3.209017	19	16.18262	19.75977
3.21704	33	16.125	19.22363
3.225063	20	16.05566	18.70801
3.233086	23	15.98047	18.2334
3.241109	7	15.90527	17.81738
3.249132	22	15.89453	17.52637
3.257155	13	15.87891	17.29297
3.265178	13	15.84668	17.10254
3.273201	16	15.80664	16.95898
3.281224	24	15.7627	16.85742
3.289247	18	15.71094	16.78711
3.29727	19	15.6543	16.74121
3.305293	22	15.59863	16.71582
3.313316	17	15.56543	16.72363
3.321339	27	15.53027	16.72949
3.329362	14	15.48438	16.71777
3.337385	11	15.43262	16.68652
3.345409	6	15.38086	16.6377
3.353432	20	15.33301	16.57031
3.361455	16	15.28516	16.48145
3.369478	24	15.23633	16.37109
3.377501	20	15.18555	16.24414
3.385524	19	15.12695	16.09668
3.393547	15	15.06445	15.93848
3.40157	16	15.00195	15.78223
3.409593	12	14.95117	15.64258
3.417616	14	14.89551	15.50879
3.425639	18	14.83594	15.38574
3.433662	14	14.77441	15.27637
3.441685	18	14.71289	15.18457
3.449708	14	14.65723	15.11621
3.457731	12	14.58789	15.04883
3.465755	18	14.51953	14.99414
3.473778	17	14.47266	14.9707
3.481801	15	14.42676	14.95215
3.489824	9	14.4082	14.96191
3.497847	14	14.38379	14.96289
3.50587	16	14.35938	14.95801
3.513893	13	14.33594	14.94629
3.521916	13	14.31055	14.92383
3.529939	15	14.27637	14.88281
3.537962	10	14.23828	14.83105
3.545985	23	14.2002	14.77441
3.554008	21	14.16992	14.72559
3.562032	18	14.13965	14.67969
3.570055	14	14.10059	14.63477
3.578078	11	14.05762	14.59961
3.586101	10	14.01563	14.58203
3.594124	15	13.98438	14.59766
3.602147	7	13.95313	14.6377
3.61017	18	13.91504	14.69434
3.618193	16	13.87305	14.77051
3.626216	18	13.83203	14.86523
3.634239	12	13.7998	14.98438
3.642262	13	13.76563	15.1084
3.650285	21	13.72852	15.22656
3.658308	14	13.68848	15.33203
3.666331	14	13.64941	15.41699
3.674354	17	13.6123	15.47656
3.682377	14	13.57422	15.50098
3.690401	17	13.53516	15.4834
3.698424	23	13.49512	15.4248
3.706447	17	13.45117	15.32227
3.71447	15	13.40527	15.18262
3.722493	12	13.35938	15.01074
3.730516	8	13.3125	14.81543
3.738539	12	13.2666	14.60547
3.746562	10	13.21387	14.38281
3.754585	16	13.15723	14.15625
3.762608	16	13.09961	13.9375
3.770631	14	13.08105	13.76953
3.778654	20	13.05566	13.61035
3.786677	16	13.02441	13.46191
3.7947	15	12.98828	13.32813
3.802723	10	12.95313	13.21094
3.810746	20	12.91309	13.10547
3.818769	13	12.86816	13.00977
3.826793	11	12.82422	12.92676
3.834816	18	12.79492	12.86914
3.842839	13	12.76367	12.81641
3.850862	13	12.73242	12.77051
3.858885	19	12.69824	12.72754
3.866908	12	12.66309	12.6875
3.874931	11	12.62598	12.65039
3.882954	16	12.58594	12.6123
3.890977	16	12.54492	12.57617
3.899	14	12.50098	12.54102
3.907023	15	12.45605	12.50684
3.915046	21	12.41211	12.47656
3.923069	17	12.36621	12.44824
3.931093	11	12.31934	12.4209
3.939116	18	12.27246	12.39648
3.947139	15	12.22266	12.37109
3.955162	19	12.17188	12.3457
3.963185	15	12.12109	12.32129
3.971208	19	12.07422	12.29883
3.979231	15	12.02148	12.27051
3.987254	14	11.96973	12.23828
3.995277	16	11.93945	12.22363
4.0033	9	11.89941	12.19336
4.011323	18	11.85938	12.15723
4.019346	19	11.82617	12.12305
4.027369	12	11.78809	12.07715
4.035392	15	11.74902	12.02637
4.043416	11	11.7168	11.97852
4.051438	7	11.68555	11.92676
4.059462	16	11.64941	11.86914
4.067485	8	11.60742	11.80469
4.075508	12	11.56543	11.74023
4.083531	15	11.52832	11.68262
4.091554	14	11.4873	11.62207
4.099577	15	11.44629	11.56445
4.1076	15	11.41309	11.51758
4.115623	16	11.37988	11.47168
4.123646	17	11.3418	11.4248
4.131669	13	11.30273	11.37695
4.139692	10	11.25879	11.32617
4.147716	18	11.21289	11.27441
4.155738	10	11.16699	11.22363
4.163762	8	11.12598	11.17676
4.171784	22	11.08301	11.12891
4.179808	5	11.03418	11.0752
4.18783	6	10.9834	11.01953
4.195854	6	10.93262	10.96484
4.203877	11	10.90039	10.92773
4.2119	14	10.8623	10.88574
4.219923	10	10.81641	10.83594
4.227946	10	10.76758	10.7832
4.235969	16	10.71875	10.73145
4.243992	16	10.67188	10.68164
4.252015	10	10.61035	10.61816
4.260038	10	10.54883	10.55469
4.268061	14	10.57227	10.57715
4.276084	10	10.58887	10.59277
4.284108	10	10.58301	10.58789
4.29213	5	10.56836	10.57324
4.300154	17	10.55273	10.55957
4.308177	14	10.54102	10.55176
4.3162	10	10.52734	10.54297
4.324223	12	10.5127	10.53613
4.332246	9	10.49805	10.53516
4.340269	11	10.4834	10.54004
4.348292	10	10.46875	10.55273
4.356315	11	10.45508	10.57715
4.364338	15	10.43848	10.61328
4.372361	22	10.41699	10.66211
4.380384	17	10.39355	10.73145
4.388407	11	10.36816	10.8252
4.39643	17	10.3418	10.94629
4.404453	10	10.30859	11.09375
4.412477	12	10.27246	11.27246
4.4205	14	10.23535	11.48438
4.428523	23	10.22852	11.75977
4.436546	9	10.21875	12.05859
4.444569	17	10.19824	12.36719
4.452592	8	10.1709	12.67871
4.460615	11	10.14063	12.98535
4.468638	16	10.10254	13.26953
4.476661	9	10.06055	13.52051
4.484684	11	10.01855	13.72949
4.492707	9	10.0127	13.91992
4.500731	16	10.00098	14.04297
4.508753	16	9.980469	14.0918
4.516777	26	9.956055	14.07031
4.524799	14	9.931641	13.9873
4.532823	11	9.90332	13.84766
4.540846	23	9.874023	13.66602
4.548869	19	9.84375	13.45703
4.556892	16	9.821289	13.24512
4.564915	6	9.794922	13.03223
4.572938	18	9.766602	12.83105
4.580961	13	9.736328	12.65137
4.588984	5	9.704102	12.49707
4.597007	13	9.669922	12.37109
4.60503	10	9.635742	12.27148
4.613053	14	9.601563	12.19141
4.621076	18	9.566406	12.125
4.629099	6	9.543945	12.07324
4.637123	12	9.517578	12.01172
4.645145	8	9.491211	11.93652
4.653169	10	9.464844	11.84082
4.661191	9	9.43457	11.71777
4.669215	15	9.401367	11.56738
4.677238	11	9.367188	11.39063
4.685261	15	9.333008	11.19434
4.693284	13	9.30957	10.99316
4.701307	9	9.28418	10.78125
4.70933	8	9.258789	10.56738
4.717353	16	9.230469	10.35352
4.725376	13	9.200195	10.14746
4.733399	7	9.166992	9.952148
4.741422	10	9.132813	9.772461
4.749445	11	9.098633	9.611328
4.757468	3	9.066406	9.472656
4.765491	11	9.035156	9.353516
4.773515	9	9.00293	9.25293
4.781538	7	8.970703	9.168945
4.789561	8	8.9375	9.099609
4.797584	13	8.901367	9.041992
4.805607	8	8.865234	8.99707
4.81363	9	8.823242	8.957031
4.821653	12	8.777344	8.923828
4.829676	11	8.730469	8.899414
4.837699	10	8.682617	8.881836
4.845722	9	8.634766	8.87207
4.853745	9	8.623047	8.904297
4.861768	8	8.608398	8.9375
4.869792	8	8.59375	8.974609
4.877814	12	8.578125	9.011719
4.885838	7	8.55957	9.043945
4.893861	4	8.538086	9.070313
4.901884	12	8.516602	9.09082
4.909907	11	8.494141	9.102539
4.91793	12	8.46875	9.101563
4.925953	10	8.44043	9.086914
4.933976	10	8.40918	9.057617
4.941999	4	8.375977	9.013672
4.950022	9	8.342773	8.958984
4.958045	14	8.311523	8.896484
4.966068	16	8.27832	8.824219
4.974091	7	8.244141	8.743164
4.982114	10	8.207031	8.655273
4.990138	13	8.169922	8.56543
4.99816	9	8.12793	8.469727
5.006184	5	8.083984	8.374023
5.014206	9	8.039063	8.282227
5.02223	7	8.012695	8.211914
5.030253	6	7.986328	8.146484
5.038276	11	7.947266	8.073242
5.046299	8	7.901367	7.999023
5.054322	12	7.851563	7.926758
5.062345	6	7.800781	7.856445
5.070368	8	7.75	7.791016
5.078391	14	7.742188	7.771484
5.086414	6	7.746094	7.767578
5.094437	6	7.748047	7.763672
5.10246	7	7.739258	7.75
5.110484	4	7.725586	7.734375
5.118506	8	7.706055	7.711914
5.12653	15	7.682617	7.688477
5.134552	8	7.657227	7.664063
5.142576	10	7.630859	7.639648
5.150599	7	7.602539	7.614258
5.158622	12	7.560547	7.576172
5.166645	9	7.511719	7.532227
5.174668	10	7.462891	7.490234
5.182691	12	7.456055	7.492188
5.190714	14	7.448242	7.496094
5.198737	15	7.432617	7.493164
5.20676	7	7.410156	7.485352
5.214783	9	7.380859	7.473633
5.222806	8	7.347656	7.459961
5.230829	6	7.314453	7.448242
5.238853	8	7.283203	7.44043
5.246876	9	7.250977	7.431641
5.254899	9	7.217773	7.421875
5.262922	11	7.18457	7.411133
5.270945	7	7.150391	7.397461
5.278968	9	7.103516	7.369141
5.286991	7	7.050781	7.330078
5.295014	7	6.998047	7.287109
5.303037	6	7.010742	7.304688
5.31106	7	7.020508	7.314453
5.319083	9	7.005859	7.294922
5.327106	9	6.978516	7.257813
5.335129	11	6.951172	7.21582
5.343153	13	6.949219	7.196289
5.351175	7	6.942383	7.168945
5.359199	14	6.923828	7.126953
5.367221	11	6.897461	7.078125
5.375245	6	6.869141	7.026367
5.383268	16	6.824219	6.958008
5.391291	7	6.770508	6.882813
5.399314	13	6.716797	6.80957
5.407337	8	6.710938	6.786133
5.41536	12	6.705078	6.765625
5.423383	6	6.691406	6.738281
5.431406	3	6.672852	6.708984
5.439429	11	6.638672	6.666016
5.447452	10	6.595703	6.616211
5.455475	9	6.553711	6.568359
5.463499	10	6.526367	6.536133
5.471521	9	6.492188	6.499023
5.479545	6	6.444336	6.449219
5.487567	8	6.389648	6.392578
5.495591	12	6.334961	6.337891
5.503614	13	6.325195	6.326172
5.511637	5	6.291016	6.291992
5.51966	9	6.257813	6.258789
5.527683	11	6.271484	6.271484
5.535706	9	6.276367	6.277344
5.543729	8	6.248047	6.248047
5.551752	7	6.202148	6.203125
5.559775	12	6.157227	6.157227
5.567798	2	6.178711	6.178711
5.575821	9	6.196289	6.197266
5.583844	6	6.183594	6.18457
5.591867	3	6.15625	6.157227
